TITLE,452 Au Runpeng PRE centrifuga 1000RCF_10-01-25
DATA TYPE,ULTRAVIOLET SPECTRUM
ORIGIN,JASCO
OWNER,
DATE,25/01/10
TIME,10:22:36
SPECTROMETER/DATA SYSTEM,
LOCALE,1040
RESOLUTION,
DELTAX,-0.5
XUNITS,NANOMETERS
YUNITS,ABSORBANCE
FIRSTX, 1200.0000
LASTX,  200.0000
NPOINTS,    2001
FIRSTY,     0.00049
MAXY,     0.16272
MINY,     0.00040
XYDATA
1200.0000,0.000487143
1199.5000,0.00045544
1199.0000,0.000461234
1198.5000,0.000450839
1198.0000,0.000437788
1197.5000,0.000460138
1197.0000,0.000482999
1196.5000,0.000489781
1196.0000,0.000496162
1195.5000,0.000497849
1195.0000,0.0004872
1194.5000,0.000449183
1194.0000,0.000441847
1193.5000,0.000420108
1193.0000,0.000431272
1192.5000,0.000429471
1192.0000,0.000400334
1191.5000,0.000411888
1191.0000,0.000437408
1190.5000,0.000416102
1190.0000,0.000417917
1189.5000,0.00043534
1189.0000,0.000422357
1188.5000,0.000405758
1188.0000,0.00042044
1187.5000,0.000421711
1187.0000,0.000459935
1186.5000,0.000450633
1186.0000,0.000454025
1185.5000,0.000442451
1185.0000,0.000442591
1184.5000,0.000466945
1184.0000,0.000460521
1183.5000,0.000459732
1183.0000,0.0004509
1182.5000,0.000434122
1182.0000,0.000442714
1181.5000,0.000433519
1181.0000,0.000462407
1180.5000,0.00048185
1180.0000,0.000489897
1179.5000,0.000518251
1179.0000,0.000528642
1178.5000,0.000573744
1178.0000,0.000583864
1177.5000,0.000601536
1177.0000,0.000606261
1176.5000,0.000606387
1176.0000,0.000617085
1175.5000,0.000623819
1175.0000,0.000589433
1174.5000,0.000573304
1174.0000,0.000589875
1173.5000,0.000630231
1173.0000,0.000646392
1172.5000,0.000658691
1172.0000,0.000656563
1171.5000,0.000665882
1171.0000,0.000675813
1170.5000,0.00066101
1170.0000,0.000673056
1169.5000,0.000678958
1169.0000,0.000697991
1168.5000,0.000712895
1168.0000,0.000694215
1167.5000,0.000692701
1167.0000,0.000716628
1166.5000,0.000754378
1166.0000,0.000767354
1165.5000,0.00074124
1165.0000,0.000744287
1164.5000,0.000736226
1164.0000,0.000748939
1163.5000,0.00072334
1163.0000,0.000731838
1162.5000,0.000742202
1162.0000,0.000754973
1161.5000,0.000743291
1161.0000,0.000766706
1160.5000,0.000790639
1160.0000,0.000779668
1159.5000,0.000755539
1159.0000,0.000801606
1158.5000,0.000815502
1158.0000,0.000831762
1157.5000,0.000775809
1157.0000,0.00078609
1156.5000,0.000794095
1156.0000,0.000825562
1155.5000,0.000838287
1155.0000,0.000823224
1154.5000,0.000842025
1154.0000,0.000838581
1153.5000,0.000838337
1153.0000,0.00084732
1152.5000,0.000821596
1152.0000,0.000812307
1151.5000,0.000813162
1151.0000,0.000811857
1150.5000,0.000815355
1150.0000,0.000807222
1149.5000,0.000857765
1149.0000,0.00083117
1148.5000,0.000827673
1148.0000,0.000830086
1147.5000,0.000863997
1147.0000,0.000835957
1146.5000,0.000809632
1146.0000,0.000802494
1145.5000,0.000827001
1145.0000,0.000788286
1144.5000,0.000760052
1144.0000,0.0007541
1143.5000,0.000770295
1143.0000,0.000757128
1142.5000,0.000765293
1142.0000,0.00071827
1141.5000,0.000758818
1141.0000,0.000769742
1140.5000,0.000763084
1140.0000,0.000756157
1139.5000,0.000717995
1139.0000,0.000707815
1138.5000,0.000700444
1138.0000,0.000685205
1137.5000,0.00068372
1137.0000,0.000659405
1136.5000,0.000690739
1136.0000,0.000743347
1135.5000,0.000756624
1135.0000,0.000745935
1134.5000,0.000724055
1134.0000,0.000728758
1133.5000,0.000714072
1133.0000,0.000746056
1132.5000,0.000764325
1132.0000,0.000747509
1131.5000,0.000722373
1131.0000,0.00073453
1130.5000,0.000756276
1130.0000,0.000764014
1129.5000,0.000725911
1129.0000,0.000747066
1128.5000,0.000758355
1128.0000,0.000776117
1127.5000,0.000786941
1127.0000,0.000800751
1126.5000,0.000821778
1126.0000,0.000839148
1125.5000,0.000794793
1125.0000,0.000770277
1124.5000,0.000759488
1124.0000,0.000736523
1123.5000,0.00077613
1123.0000,0.000775127
1122.5000,0.000796557
1122.0000,0.00081139
1121.5000,0.000810739
1121.0000,0.000802199
1120.5000,0.000800131
1120.0000,0.00076677
1119.5000,0.000767006
1119.0000,0.000763407
1118.5000,0.000763827
1118.0000,0.000765248
1117.5000,0.000768783
1117.0000,0.000748547
1116.5000,0.000734095
1116.0000,0.000723731
1115.5000,0.000759173
1115.0000,0.000777937
1114.5000,0.000781674
1114.0000,0.000799848
1113.5000,0.000860193
1113.0000,0.000859193
1112.5000,0.00087391
1112.0000,0.000848267
1111.5000,0.000830145
1111.0000,0.000817829
1110.5000,0.000790585
1110.0000,0.000817159
1109.5000,0.000833675
1109.0000,0.000857684
1108.5000,0.000859719
1108.0000,0.000883346
1107.5000,0.000852194
1107.0000,0.000885561
1106.5000,0.000852004
1106.0000,0.000848633
1105.5000,0.000847654
1105.0000,0.000861216
1104.5000,0.000875812
1104.0000,0.00087832
1103.5000,0.000872439
1103.0000,0.000871869
1102.5000,0.000893441
1102.0000,0.000916584
1101.5000,0.00090874
1101.0000,0.000895787
1100.5000,0.000904587
1100.0000,0.00091357
1099.5000,0.00089123
1099.0000,0.000884823
1098.5000,0.000884606
1098.0000,0.000850924
1097.5000,0.000798937
1097.0000,0.000780738
1096.5000,0.000768447
1096.0000,0.00081729
1095.5000,0.000836007
1095.0000,0.000830233
1094.5000,0.000816094
1094.0000,0.000807492
1093.5000,0.000796535
1093.0000,0.000796593
1092.5000,0.000820726
1092.0000,0.000810282
1091.5000,0.000855169
1091.0000,0.000847437
1090.5000,0.000860306
1090.0000,0.000893878
1089.5000,0.000874949
1089.0000,0.000892175
1088.5000,0.000861152
1088.0000,0.000881491
1087.5000,0.000896788
1087.0000,0.000897523
1086.5000,0.000901797
1086.0000,0.000886245
1085.5000,0.000881861
1085.0000,0.000913337
1084.5000,0.000901869
1084.0000,0.000926444
1083.5000,0.000910404
1083.0000,0.000935596
1082.5000,0.000946201
1082.0000,0.000969712
1081.5000,0.000991868
1081.0000,0.0010143
1080.5000,0.000984643
1080.0000,0.000967258
1079.5000,0.000921287
1079.0000,0.000924438
1078.5000,0.000947866
1078.0000,0.000946664
1077.5000,0.000961108
1077.0000,0.000967503
1076.5000,0.000957086
1076.0000,0.000973797
1075.5000,0.000919724
1075.0000,0.000908291
1074.5000,0.000917291
1074.0000,0.000892321
1073.5000,0.000902844
1073.0000,0.000883447
1072.5000,0.000915552
1072.0000,0.000915358
1071.5000,0.000906811
1071.0000,0.000944773
1070.5000,0.000924352
1070.0000,0.00091394
1069.5000,0.000920256
1069.0000,0.000931414
1068.5000,0.000939359
1068.0000,0.000924071
1067.5000,0.00093373
1067.0000,0.000913118
1066.5000,0.000914013
1066.0000,0.000901727
1065.5000,0.00088668
1065.0000,0.000885607
1064.5000,0.000897611
1064.0000,0.00089677
1063.5000,0.000946867
1063.0000,0.000936588
1062.5000,0.000939608
1062.0000,0.00095386
1061.5000,0.000958915
1061.0000,0.000953389
1060.5000,0.000937668
1060.0000,0.000931316
1059.5000,0.000950021
1059.0000,0.000971004
1058.5000,0.000953131
1058.0000,0.000958723
1057.5000,0.000980312
1057.0000,0.000972796
1056.5000,0.000942145
1056.0000,0.000922369
1055.5000,0.000926467
1055.0000,0.000906807
1054.5000,0.00089446
1054.0000,0.000917253
1053.5000,0.000915699
1053.0000,0.000894183
1052.5000,0.000882083
1052.0000,0.000878322
1051.5000,0.000836967
1051.0000,0.000836338
1050.5000,0.000797215
1050.0000,0.000819384
1049.5000,0.000801892
1049.0000,0.000798183
1048.5000,0.000802275
1048.0000,0.000822767
1047.5000,0.000801895
1047.0000,0.000823831
1046.5000,0.000803321
1046.0000,0.000778697
1045.5000,0.000760329
1045.0000,0.000742387
1044.5000,0.000724379
1044.0000,0.000735134
1043.5000,0.000728285
1043.0000,0.000719752
1042.5000,0.000708029
1042.0000,0.000719931
1041.5000,0.000698106
1041.0000,0.000715792
1040.5000,0.000712494
1040.0000,0.00073705
1039.5000,0.000712555
1039.0000,0.000701627
1038.5000,0.00069506
1038.0000,0.000685682
1037.5000,0.000667701
1037.0000,0.000695642
1036.5000,0.000669886
1036.0000,0.000667728
1035.5000,0.000674993
1035.0000,0.000667512
1034.5000,0.000665491
1034.0000,0.000678909
1033.5000,0.000680246
1033.0000,0.000701937
1032.5000,0.000652622
1032.0000,0.000632199
1031.5000,0.000629075
1031.0000,0.000639246
1030.5000,0.000641791
1030.0000,0.000648173
1029.5000,0.000631656
1029.0000,0.000672011
1028.5000,0.000681827
1028.0000,0.00069402
1027.5000,0.00069504
1027.0000,0.000713542
1026.5000,0.000677788
1026.0000,0.000695368
1025.5000,0.00066883
1025.0000,0.000690447
1024.5000,0.000698179
1024.0000,0.000682025
1023.5000,0.000693457
1023.0000,0.000712215
1022.5000,0.000712266
1022.0000,0.000736648
1021.5000,0.000708136
1021.0000,0.000694116
1020.5000,0.000713487
1020.0000,0.000744065
1019.5000,0.000750567
1019.0000,0.000784205
1018.5000,0.000804309
1018.0000,0.000774795
1017.5000,0.00075933
1017.0000,0.000725944
1016.5000,0.000775694
1016.0000,0.000786996
1015.5000,0.000785943
1015.0000,0.000797678
1014.5000,0.000802384
1014.0000,0.000813741
1013.5000,0.000844275
1013.0000,0.000824123
1012.5000,0.000803602
1012.0000,0.000800062
1011.5000,0.000768217
1011.0000,0.000772587
1010.5000,0.000834588
1010.0000,0.000816048
1009.5000,0.000815362
1009.0000,0.000840987
1008.5000,0.000813954
1008.0000,0.000829569
1007.5000,0.000823857
1007.0000,0.000822154
1006.5000,0.000807154
1006.0000,0.000800687
1005.5000,0.000835975
1005.0000,0.000837454
1004.5000,0.00084106
1004.0000,0.000844428
1003.5000,0.000843246
1003.0000,0.000867017
1002.5000,0.000855062
1002.0000,0.000874815
1001.5000,0.000901557
1001.0000,0.000937632
1000.5000,0.00095025
1000.0000,0.00100678
999.5000,0.00100281
999.0000,0.00102708
998.5000,0.00101682
998.0000,0.00100521
997.5000,0.000983993
997.0000,0.00101522
996.5000,0.00103877
996.0000,0.00103126
995.5000,0.00104556
995.0000,0.00107397
994.5000,0.00106313
994.0000,0.0010505
993.5000,0.00105138
993.0000,0.00101442
992.5000,0.000992091
992.0000,0.00102983
991.5000,0.00102703
991.0000,0.00102835
990.5000,0.00107299
990.0000,0.00113246
989.5000,0.00108304
989.0000,0.00113751
988.5000,0.00112547
988.0000,0.00109354
987.5000,0.00108337
987.0000,0.00105275
986.5000,0.00105527
986.0000,0.00105049
985.5000,0.00104306
985.0000,0.00106051
984.5000,0.00103083
984.0000,0.000984469
983.5000,0.000955318
983.0000,0.000918107
982.5000,0.000938371
982.0000,0.000961211
981.5000,0.000920787
981.0000,0.000900515
980.5000,0.000858502
980.0000,0.000908587
979.5000,0.000879253
979.0000,0.000839379
978.5000,0.000802462
978.0000,0.000821731
977.5000,0.000867684
977.0000,0.00091935
976.5000,0.00100205
976.0000,0.00105265
975.5000,0.00104524
975.0000,0.0011263
974.5000,0.00110986
974.0000,0.00107784
973.5000,0.00111595
973.0000,0.00108598
972.5000,0.00106969
972.0000,0.00111475
971.5000,0.00112229
971.0000,0.00117857
970.5000,0.00119472
970.0000,0.00119841
969.5000,0.00115985
969.0000,0.001142
968.5000,0.0011276
968.0000,0.00114163
967.5000,0.00118908
967.0000,0.00120102
966.5000,0.00118897
966.0000,0.00122328
965.5000,0.00129366
965.0000,0.00134862
964.5000,0.00137597
964.0000,0.00137005
963.5000,0.00143666
963.0000,0.00140548
962.5000,0.00136329
962.0000,0.001338
961.5000,0.00132548
961.0000,0.00137536
960.5000,0.00128606
960.0000,0.00123651
959.5000,0.00128431
959.0000,0.0012502
958.5000,0.00123195
958.0000,0.00130414
957.5000,0.00130948
957.0000,0.00135861
956.5000,0.00137432
956.0000,0.00139041
955.5000,0.00139926
955.0000,0.00135797
954.5000,0.00129965
954.0000,0.00131545
953.5000,0.00134653
953.0000,0.0013272
952.5000,0.00137364
952.0000,0.00139659
951.5000,0.00135654
951.0000,0.00138977
950.5000,0.00134878
950.0000,0.00134467
949.5000,0.00123819
949.0000,0.0012316
948.5000,0.00123287
948.0000,0.00127987
947.5000,0.00128194
947.0000,0.00133675
946.5000,0.00139298
946.0000,0.00145792
945.5000,0.00138588
945.0000,0.00135014
944.5000,0.00134902
944.0000,0.00139719
943.5000,0.00133245
943.0000,0.00130824
942.5000,0.00126416
942.0000,0.00117557
941.5000,0.00109548
941.0000,0.00108978
940.5000,0.00104812
940.0000,0.00109053
939.5000,0.000996095
939.0000,0.00104769
938.5000,0.0010683
938.0000,0.00117367
937.5000,0.0011372
937.0000,0.00121076
936.5000,0.00118907
936.0000,0.00120336
935.5000,0.00116831
935.0000,0.00120796
934.5000,0.00117858
934.0000,0.00119299
933.5000,0.0012494
933.0000,0.00123578
932.5000,0.00119732
932.0000,0.00114595
931.5000,0.00107812
931.0000,0.00115515
930.5000,0.00111971
930.0000,0.00110994
929.5000,0.00116003
929.0000,0.00111821
928.5000,0.00116027
928.0000,0.00115195
927.5000,0.00113314
927.0000,0.00122646
926.5000,0.00122574
926.0000,0.00130569
925.5000,0.00136073
925.0000,0.00137671
924.5000,0.0014179
924.0000,0.00137088
923.5000,0.00144608
923.0000,0.00146077
922.5000,0.00146918
922.0000,0.00137429
921.5000,0.00137194
921.0000,0.00143589
920.5000,0.00142139
920.0000,0.00139942
919.5000,0.00143597
919.0000,0.00137192
918.5000,0.00139627
918.0000,0.00137799
917.5000,0.0013509
917.0000,0.00138303
916.5000,0.00139142
916.0000,0.00135698
915.5000,0.00139986
915.0000,0.00133867
914.5000,0.00131765
914.0000,0.00134593
913.5000,0.00132204
913.0000,0.00133737
912.5000,0.00123563
912.0000,0.00123626
911.5000,0.00120077
911.0000,0.00112584
910.5000,0.00113712
910.0000,0.00112971
909.5000,0.00111293
909.0000,0.00110807
908.5000,0.00105903
908.0000,0.00112986
907.5000,0.00115194
907.0000,0.00115124
906.5000,0.00108729
906.0000,0.00116897
905.5000,0.00124983
905.0000,0.00121844
904.5000,0.00113252
904.0000,0.00129485
903.5000,0.00116272
903.0000,0.00124463
902.5000,0.00112334
902.0000,0.00123585
901.5000,0.00119123
901.0000,0.0012672
900.5000,0.00124485
900.0000,0.00139111
899.5000,0.0013089
899.0000,0.00131885
898.5000,0.00131332
898.0000,0.00137283
897.5000,0.00139025
897.0000,0.00150448
896.5000,0.00158046
896.0000,0.00167164
895.5000,0.00157958
895.0000,0.00167244
894.5000,0.0016791
894.0000,0.00174689
893.5000,0.00169333
893.0000,0.00172666
892.5000,0.00172657
892.0000,0.00173582
891.5000,0.00158792
891.0000,0.00162493
890.5000,0.00154844
890.0000,0.00158657
889.5000,0.0013798
889.0000,0.00152445
888.5000,0.00158074
888.0000,0.00145419
887.5000,0.00157769
887.0000,0.00166555
886.5000,0.0017556
886.0000,0.00174772
885.5000,0.00183727
885.0000,0.0018485
884.5000,0.00187073
884.0000,0.0018545
883.5000,0.00184958
883.0000,0.00195875
882.5000,0.00207124
882.0000,0.00204008
881.5000,0.00190857
881.0000,0.00181151
880.5000,0.00179299
880.0000,0.00163021
879.5000,0.00181483
879.0000,0.00188524
878.5000,0.0018802
878.0000,0.00190564
877.5000,0.00198039
877.0000,0.00193374
876.5000,0.00196609
876.0000,0.00192718
875.5000,0.00196364
875.0000,0.00190114
874.5000,0.00199833
874.0000,0.00191478
873.5000,0.00211083
873.0000,0.00203548
872.5000,0.00187502
872.0000,0.00186773
871.5000,0.00189465
871.0000,0.00178065
870.5000,0.00192219
870.0000,0.00186277
869.5000,0.00181508
869.0000,0.00178136
868.5000,0.00183118
868.0000,0.00163551
867.5000,0.00168569
867.0000,0.00157481
866.5000,0.00149977
866.0000,0.00163228
865.5000,0.00180491
865.0000,0.00185154
864.5000,0.00183723
864.0000,0.00204018
863.5000,0.00207774
863.0000,0.00193106
862.5000,0.00202345
862.0000,0.00202189
861.5000,0.00199887
861.0000,0.002037
860.5000,0.00207097
860.0000,0.00212337
859.5000,0.00218388
859.0000,0.00213195
858.5000,0.00203484
858.0000,0.00213301
857.5000,0.00200645
857.0000,0.00187817
856.5000,0.00211649
856.0000,0.00222085
855.5000,0.00206823
855.0000,0.00224765
854.5000,0.00203851
854.0000,0.00213026
853.5000,0.00199451
853.0000,0.00207944
852.5000,0.00196399
852.0000,0.00209136
851.5000,0.00207508
851.0000,0.00223182
850.5000,0.00205504
850.0000,0.00194825
849.5000,0.00194516
849.0000,0.00189663
848.5000,0.00188677
848.0000,0.00185399
847.5000,0.00191047
847.0000,0.00188939
846.5000,0.00184567
846.0000,0.00179418
845.5000,0.00181211
845.0000,0.00180326
844.5000,0.00178942
844.0000,0.00174559
843.5000,0.00171767
843.0000,0.00174149
842.5000,0.00176745
842.0000,0.00177392
841.5000,0.00179988
841.0000,0.00178764
840.5000,0.00182292
840.0000,0.00187359
839.5000,0.00186112
839.0000,0.0018648
838.5000,0.00187709
838.0000,0.001861
837.5000,0.00189295
837.0000,0.00190649
836.5000,0.00186028
836.0000,0.00187781
835.5000,0.00187228
835.0000,0.00189551
834.5000,0.0019062
834.0000,0.00189966
833.5000,0.00185031
833.0000,0.00182791
832.5000,0.00183504
832.0000,0.00182649
831.5000,0.00191053
831.0000,0.00195757
830.5000,0.00199119
830.0000,0.00199149
829.5000,0.0020219
829.0000,0.00208207
828.5000,0.00209068
828.0000,0.00206758
827.5000,0.00209626
827.0000,0.00208629
826.5000,0.00212667
826.0000,0.00211895
825.5000,0.00215946
825.0000,0.00215328
824.5000,0.00216142
824.0000,0.00217995
823.5000,0.00217526
823.0000,0.00221096
822.5000,0.00221256
822.0000,0.00221892
821.5000,0.00222604
821.0000,0.00224149
820.5000,0.00225052
820.0000,0.00226483
819.5000,0.00230451
819.0000,0.00231104
818.5000,0.00225729
818.0000,0.00228253
817.5000,0.00232025
817.0000,0.00234127
816.5000,0.00235084
816.0000,0.00236919
815.5000,0.00230837
815.0000,0.00228687
814.5000,0.00232244
814.0000,0.00233367
813.5000,0.00232191
813.0000,0.00229358
812.5000,0.00228502
812.0000,0.00235268
811.5000,0.00233195
811.0000,0.00234157
810.5000,0.00232423
810.0000,0.00226228
809.5000,0.00226495
809.0000,0.00225871
808.5000,0.00225913
808.0000,0.00223074
807.5000,0.0022438
807.0000,0.00222331
806.5000,0.00224018
806.0000,0.00228194
805.5000,0.00226851
805.0000,0.00229975
804.5000,0.00230219
804.0000,0.0022918
803.5000,0.00229417
803.0000,0.00230017
802.5000,0.0023383
802.0000,0.00233836
801.5000,0.00232892
801.0000,0.00232357
800.5000,0.002343
800.0000,0.00234288
799.5000,0.00235719
799.0000,0.00238327
798.5000,0.00235648
798.0000,0.00239782
797.5000,0.00237602
797.0000,0.00239716
796.5000,0.00243322
796.0000,0.00240863
795.5000,0.00242912
795.0000,0.00243167
794.5000,0.00242847
794.0000,0.00250527
793.5000,0.00250111
793.0000,0.0025178
792.5000,0.00251661
792.0000,0.00252166
791.5000,0.00253437
791.0000,0.0025466
790.5000,0.00253734
790.0000,0.00252855
789.5000,0.00254447
789.0000,0.0025431
788.5000,0.00252421
788.0000,0.00253906
787.5000,0.00252196
787.0000,0.00251976
786.5000,0.00255112
786.0000,0.00254245
785.5000,0.00257084
785.0000,0.002569
784.5000,0.00256526
784.0000,0.00262934
783.5000,0.00265399
783.0000,0.00267033
782.5000,0.0026695
782.0000,0.0026537
781.5000,0.00267157
781.0000,0.00267674
780.5000,0.00266195
780.0000,0.00270448
779.5000,0.00267347
779.0000,0.00266736
778.5000,0.00268405
778.0000,0.00267443
777.5000,0.00273008
777.0000,0.00272147
776.5000,0.00272331
776.0000,0.00275841
775.5000,0.00277379
775.0000,0.0027931
774.5000,0.00280088
774.0000,0.00279708
773.5000,0.00280064
773.0000,0.00282095
772.5000,0.00287275
772.0000,0.00289633
771.5000,0.00288671
771.0000,0.00290904
770.5000,0.00290518
770.0000,0.00291355
769.5000,0.00287506
769.0000,0.00290577
768.5000,0.00292941
768.0000,0.002887
767.5000,0.00286081
767.0000,0.00285903
766.5000,0.00286039
766.0000,0.00289033
765.5000,0.00291118
765.0000,0.00292252
764.5000,0.00294771
764.0000,0.00292995
763.5000,0.00296095
763.0000,0.00299427
762.5000,0.00300063
762.0000,0.00300247
761.5000,0.00296968
761.0000,0.00299831
760.5000,0.00302017
760.0000,0.00299855
759.5000,0.0030074
759.0000,0.00301607
758.5000,0.00302854
758.0000,0.00305521
757.5000,0.00306858
757.0000,0.00307054
756.5000,0.00307273
756.0000,0.00307208
755.5000,0.00312186
755.0000,0.00312043
754.5000,0.00314728
754.0000,0.00316902
753.5000,0.00320442
753.0000,0.0032173
752.5000,0.00322396
752.0000,0.0032669
751.5000,0.00329232
751.0000,0.0033026
750.5000,0.00331798
750.0000,0.00332933
749.5000,0.00333004
749.0000,0.0033203
748.5000,0.00332024
748.0000,0.00333907
747.5000,0.00335427
747.0000,0.00337043
746.5000,0.00336936
746.0000,0.00339151
745.5000,0.00340511
745.0000,0.00343701
744.5000,0.00345756
744.0000,0.00347146
743.5000,0.00345994
743.0000,0.00347835
742.5000,0.0034935
742.0000,0.00349201
741.5000,0.00350864
741.0000,0.00354006
740.5000,0.0035523
740.0000,0.00360065
739.5000,0.0035997
739.0000,0.00360659
738.5000,0.00364347
738.0000,0.00366378
737.5000,0.00367822
737.0000,0.00369194
736.5000,0.00369366
736.0000,0.00370186
735.5000,0.00372176
735.0000,0.00373934
734.5000,0.00376381
734.0000,0.00377699
733.5000,0.00382968
733.0000,0.00382362
732.5000,0.00385724
732.0000,0.00386615
731.5000,0.00386383
731.0000,0.00387232
730.5000,0.00387868
730.0000,0.00388622
729.5000,0.003894
729.0000,0.00389852
728.5000,0.00388646
728.0000,0.00389792
727.5000,0.00390499
727.0000,0.00391788
726.5000,0.00394033
726.0000,0.00396433
725.5000,0.00398595
725.0000,0.00402616
724.5000,0.00401434
724.0000,0.00403311
723.5000,0.00405811
723.0000,0.00408401
722.5000,0.00407932
722.0000,0.00409458
721.5000,0.00409055
721.0000,0.00413087
720.5000,0.00414335
720.0000,0.00416289
719.5000,0.00414988
719.0000,0.00418178
718.5000,0.00418683
718.0000,0.00420987
717.5000,0.00421231
717.0000,0.00423601
716.5000,0.00425674
716.0000,0.00427824
715.5000,0.00428738
715.0000,0.00431435
714.5000,0.00432813
714.0000,0.00435218
713.5000,0.00435854
713.0000,0.00441283
712.5000,0.00444413
712.0000,0.00446753
711.5000,0.00446664
711.0000,0.0044964
710.5000,0.00450976
710.0000,0.00453097
709.5000,0.00452776
709.0000,0.00455003
708.5000,0.00459797
708.0000,0.00460759
707.5000,0.00461864
707.0000,0.00465012
706.5000,0.00466294
706.0000,0.00469698
705.5000,0.00473196
705.0000,0.0047534
704.5000,0.00479344
704.0000,0.0048267
703.5000,0.00486935
703.0000,0.00487422
702.5000,0.00491698
702.0000,0.00494454
701.5000,0.0049686
701.0000,0.00500204
700.5000,0.00501659
700.0000,0.00504534
699.5000,0.00509576
699.0000,0.00512012
698.5000,0.00515575
698.0000,0.00518913
697.5000,0.00523255
697.0000,0.00524342
696.5000,0.00527027
696.0000,0.00528161
695.5000,0.0053242
695.0000,0.00534766
694.5000,0.00538574
694.0000,0.00541324
693.5000,0.00547287
693.0000,0.00549122
692.5000,0.00551148
692.0000,0.00555478
691.5000,0.00559457
691.0000,0.00560746
690.5000,0.00563876
690.0000,0.00566935
689.5000,0.00570279
689.0000,0.00572031
688.5000,0.00574959
688.0000,0.00579004
687.5000,0.00582942
687.0000,0.00587789
686.5000,0.00589951
686.0000,0.00594317
685.5000,0.00597821
685.0000,0.00602466
684.5000,0.00607443
684.0000,0.00612046
683.5000,0.00615456
683.0000,0.00617719
682.5000,0.00621098
682.0000,0.00624656
681.5000,0.00627976
681.0000,0.00631861
680.5000,0.00634789
680.0000,0.00639879
679.5000,0.00643336
679.0000,0.00647256
678.5000,0.00650559
678.0000,0.00654194
677.5000,0.00658185
677.0000,0.00663685
676.5000,0.00667469
676.0000,0.00671431
675.5000,0.00674127
675.0000,0.00679146
674.5000,0.00682959
674.0000,0.00686773
673.5000,0.00689338
673.0000,0.00694435
672.5000,0.00699008
672.0000,0.00703356
671.5000,0.00706296
671.0000,0.00710584
670.5000,0.00715318
670.0000,0.00718793
669.5000,0.00722749
669.0000,0.00725416
668.5000,0.00728932
668.0000,0.00735281
667.5000,0.00740805
667.0000,0.00747766
666.5000,0.00752435
666.0000,0.00758743
665.5000,0.0076214
665.0000,0.00767991
664.5000,0.00772867
664.0000,0.00778712
663.5000,0.00784307
663.0000,0.00790727
662.5000,0.0079539
662.0000,0.00800736
661.5000,0.00804495
661.0000,0.00810738
660.5000,0.00816891
660.0000,0.00823389
659.5000,0.00829002
659.0000,0.00834978
658.5000,0.00839913
658.0000,0.00846387
657.5000,0.0085162
657.0000,0.00859615
656.5000,0.00865727
656.0000,0.00871589
655.5000,0.00878491
655.0000,0.00884407
654.5000,0.00890709
654.0000,0.00898448
653.5000,0.00904602
653.0000,0.00912757
652.5000,0.00919076
652.0000,0.00924119
651.5000,0.0093095
651.0000,0.0093699
650.5000,0.00944724
650.0000,0.0095099
649.5000,0.00959424
649.0000,0.00965566
648.5000,0.00974392
648.0000,0.00980694
647.5000,0.00989057
647.0000,0.0099578
646.5000,0.010043
646.0000,0.0101151
645.5000,0.0102019
645.0000,0.0102655
644.5000,0.0103569
644.0000,0.0104381
643.5000,0.0105389
643.0000,0.0106229
642.5000,0.0107299
642.0000,0.0108189
641.5000,0.0109335
641.0000,0.0110077
640.5000,0.0110929
640.0000,0.0111773
639.5000,0.0112679
639.0000,0.0113696
638.5000,0.0114761
638.0000,0.0115585
637.5000,0.0116735
637.0000,0.0117728
636.5000,0.0118951
636.0000,0.0120055
635.5000,0.0120962
635.0000,0.0121917
634.5000,0.0122952
634.0000,0.0124014
633.5000,0.0125193
633.0000,0.012639
632.5000,0.0127521
632.0000,0.0128607
631.5000,0.012986
631.0000,0.0131128
630.5000,0.0132214
630.0000,0.0133569
629.5000,0.0134909
629.0000,0.013602
628.5000,0.0137113
628.0000,0.0138387
627.5000,0.0139513
627.0000,0.0140802
626.5000,0.0142139
626.0000,0.0143395
625.5000,0.014456
625.0000,0.0145856
624.5000,0.0147265
624.0000,0.0148868
623.5000,0.0150213
623.0000,0.0151671
622.5000,0.0152943
622.0000,0.015456
621.5000,0.0155844
621.0000,0.0157341
620.5000,0.0158813
620.0000,0.0159369
619.5000,0.0161052
619.0000,0.016268
618.5000,0.0164313
618.0000,0.0165834
617.5000,0.0167513
617.0000,0.0169222
616.5000,0.0171024
616.0000,0.0172627
615.5000,0.0174239
615.0000,0.017609
614.5000,0.0177811
614.0000,0.0179635
613.5000,0.0181367
613.0000,0.0183142
612.5000,0.0185152
612.0000,0.0187069
611.5000,0.0189074
611.0000,0.0191086
610.5000,0.0193042
610.0000,0.0195066
609.5000,0.019708
609.0000,0.0199248
608.5000,0.0201307
608.0000,0.0203375
607.5000,0.0205364
607.0000,0.0207466
606.5000,0.0209792
606.0000,0.0211984
605.5000,0.0214312
605.0000,0.0216653
604.5000,0.0219114
604.0000,0.0221433
603.5000,0.0223818
603.0000,0.0226136
602.5000,0.0228573
602.0000,0.0231141
601.5000,0.0233543
601.0000,0.0236096
600.5000,0.0238752
600.0000,0.0241501
599.5000,0.0244327
599.0000,0.0246981
598.5000,0.024988
598.0000,0.0252581
597.5000,0.0255436
597.0000,0.0258224
596.5000,0.0261188
596.0000,0.0264097
595.5000,0.0267078
595.0000,0.0270089
594.5000,0.0273373
594.0000,0.0276453
593.5000,0.0279654
593.0000,0.0282624
592.5000,0.0285836
592.0000,0.0289079
591.5000,0.0292611
591.0000,0.0296045
590.5000,0.0299519
590.0000,0.0303085
589.5000,0.0306659
589.0000,0.0310151
588.5000,0.0313811
588.0000,0.0317628
587.5000,0.0321443
587.0000,0.0325372
586.5000,0.0329233
586.0000,0.0333127
585.5000,0.0337283
585.0000,0.0341394
584.5000,0.0345485
584.0000,0.0349747
583.5000,0.0353852
583.0000,0.03584
582.5000,0.0362733
582.0000,0.0367272
581.5000,0.0371843
581.0000,0.0376685
580.5000,0.0381403
580.0000,0.0386271
579.5000,0.0391021
579.0000,0.039582
578.5000,0.0400809
578.0000,0.0405835
577.5000,0.0410887
577.0000,0.0416396
576.5000,0.0421745
576.0000,0.042723
575.5000,0.0432678
575.0000,0.0438232
574.5000,0.044379
574.0000,0.0449571
573.5000,0.0455392
573.0000,0.046143
572.5000,0.0467263
572.0000,0.0473362
571.5000,0.0479492
571.0000,0.0485778
570.5000,0.0492078
570.0000,0.0498691
569.5000,0.0505177
569.0000,0.0511694
568.5000,0.0518371
568.0000,0.0525191
567.5000,0.0532117
567.0000,0.0539064
566.5000,0.0546277
566.0000,0.0553431
565.5000,0.0560839
565.0000,0.0568242
564.5000,0.0575596
564.0000,0.0583255
563.5000,0.0591071
563.0000,0.0598979
562.5000,0.0606586
562.0000,0.0614745
561.5000,0.0622968
561.0000,0.0631002
560.5000,0.063929
560.0000,0.0647589
559.5000,0.0655982
559.0000,0.0664509
558.5000,0.0673111
558.0000,0.0681768
557.5000,0.0690686
557.0000,0.069951
556.5000,0.0708566
556.0000,0.0717424
555.5000,0.07265
555.0000,0.0735702
554.5000,0.0745093
554.0000,0.0754423
553.5000,0.0763961
553.0000,0.0773586
552.5000,0.078333
552.0000,0.0792938
551.5000,0.0802683
551.0000,0.0812482
550.5000,0.08223
550.0000,0.0832214
549.5000,0.0842103
549.0000,0.0852098
548.5000,0.0862323
548.0000,0.0872174
547.5000,0.088231
547.0000,0.0892472
546.5000,0.0902917
546.0000,0.0912976
545.5000,0.0923137
545.0000,0.0933189
544.5000,0.0943578
544.0000,0.0953931
543.5000,0.0964306
543.0000,0.09746
542.5000,0.0984931
542.0000,0.0995223
541.5000,0.100557
541.0000,0.101573
540.5000,0.102595
540.0000,0.103624
539.5000,0.104646
539.0000,0.105638
538.5000,0.106652
538.0000,0.107637
537.5000,0.10861
537.0000,0.109598
536.5000,0.110551
536.0000,0.111503
535.5000,0.112436
535.0000,0.113357
534.5000,0.114262
534.0000,0.115162
533.5000,0.116044
533.0000,0.116918
532.5000,0.117766
532.0000,0.118607
531.5000,0.119425
531.0000,0.120216
530.5000,0.120972
530.0000,0.121743
529.5000,0.12248
529.0000,0.123216
528.5000,0.123882
528.0000,0.124536
527.5000,0.125163
527.0000,0.125775
526.5000,0.126337
526.0000,0.126896
525.5000,0.127403
525.0000,0.127913
524.5000,0.128373
524.0000,0.128812
523.5000,0.129194
523.0000,0.12958
522.5000,0.12989
522.0000,0.130201
521.5000,0.130458
521.0000,0.130681
520.5000,0.130863
520.0000,0.131042
519.5000,0.131181
519.0000,0.131291
518.5000,0.131364
518.0000,0.131403
517.5000,0.131401
517.0000,0.131375
516.5000,0.131307
516.0000,0.13122
515.5000,0.131088
515.0000,0.130939
514.5000,0.13075
514.0000,0.130532
513.5000,0.130286
513.0000,0.130023
512.5000,0.129732
512.0000,0.129414
511.5000,0.129065
511.0000,0.128679
510.5000,0.128288
510.0000,0.127931
509.5000,0.127492
509.0000,0.127027
508.5000,0.126537
508.0000,0.126029
507.5000,0.125499
507.0000,0.124951
506.5000,0.124392
506.0000,0.123806
505.5000,0.123219
505.0000,0.122601
504.5000,0.121982
504.0000,0.121368
503.5000,0.120739
503.0000,0.120096
502.5000,0.119454
502.0000,0.118798
501.5000,0.118147
501.0000,0.117502
500.5000,0.116819
500.0000,0.116152
499.5000,0.115498
499.0000,0.114831
498.5000,0.114175
498.0000,0.113513
497.5000,0.112835
497.0000,0.112162
496.5000,0.111493
496.0000,0.110835
495.5000,0.110165
495.0000,0.109503
494.5000,0.108865
494.0000,0.108236
493.5000,0.1076
493.0000,0.106962
492.5000,0.10635
492.0000,0.105738
491.5000,0.105122
491.0000,0.104529
490.5000,0.103928
490.0000,0.103339
489.5000,0.102776
489.0000,0.10222
488.5000,0.101662
488.0000,0.101129
487.5000,0.100585
487.0000,0.100063
486.5000,0.0995336
486.0000,0.0990406
485.5000,0.0985448
485.0000,0.0980495
484.5000,0.0975695
484.0000,0.0970996
483.5000,0.0966251
483.0000,0.0961688
482.5000,0.0957311
482.0000,0.0952991
481.5000,0.0948656
481.0000,0.0944674
480.5000,0.094057
480.0000,0.0936671
479.5000,0.0932696
479.0000,0.0929096
478.5000,0.0925317
478.0000,0.092176
477.5000,0.0918256
477.0000,0.091495
476.5000,0.0911549
476.0000,0.09083
475.5000,0.0905102
475.0000,0.0902197
474.5000,0.0899189
474.0000,0.0896455
473.5000,0.089348
473.0000,0.0890832
472.5000,0.0888198
472.0000,0.0885478
471.5000,0.0883046
471.0000,0.0880644
470.5000,0.0878316
470.0000,0.0875846
469.5000,0.0873561
469.0000,0.08714
468.5000,0.0869314
468.0000,0.0867216
467.5000,0.086524
467.0000,0.0863345
466.5000,0.0861447
466.0000,0.0859643
465.5000,0.0858061
465.0000,0.0856412
464.5000,0.0854955
464.0000,0.0853273
463.5000,0.085208
463.0000,0.0850507
462.5000,0.0849118
462.0000,0.084766
461.5000,0.084638
461.0000,0.0845056
460.5000,0.084376
460.0000,0.084245
459.5000,0.0841493
459.0000,0.0840253
458.5000,0.0839323
458.0000,0.0838082
457.5000,0.0837137
457.0000,0.0836094
456.5000,0.0835206
456.0000,0.08342
455.5000,0.0833456
455.0000,0.0832422
454.5000,0.0831656
454.0000,0.0830868
453.5000,0.0830054
453.0000,0.0829243
452.5000,0.082855
452.0000,0.0828081
451.5000,0.0827416
451.0000,0.0826711
450.5000,0.0826261
450.0000,0.0823252
449.5000,0.0822748
449.0000,0.0822287
448.5000,0.0821656
448.0000,0.0821142
447.5000,0.0820698
447.0000,0.0820256
446.5000,0.0819877
446.0000,0.0819544
445.5000,0.081917
445.0000,0.0818932
444.5000,0.0818576
444.0000,0.0818172
443.5000,0.0818053
443.0000,0.0817773
442.5000,0.0817478
442.0000,0.0817389
441.5000,0.0817381
441.0000,0.08173
440.5000,0.0817431
440.0000,0.0817516
439.5000,0.0817529
439.0000,0.0817646
438.5000,0.0817652
438.0000,0.0817545
437.5000,0.0817584
437.0000,0.0817542
436.5000,0.0817602
436.0000,0.081765
435.5000,0.0817765
435.0000,0.0817931
434.5000,0.0817949
434.0000,0.0818112
433.5000,0.0818184
433.0000,0.0818301
432.5000,0.0818648
432.0000,0.0818821
431.5000,0.0819068
431.0000,0.0819344
430.5000,0.0819588
430.0000,0.0819746
429.5000,0.0819983
429.0000,0.0820212
428.5000,0.0820409
428.0000,0.0820802
427.5000,0.0820922
427.0000,0.0821288
426.5000,0.0821703
426.0000,0.0822021
425.5000,0.0822335
425.0000,0.0822597
424.5000,0.0822987
424.0000,0.0823167
423.5000,0.0823557
423.0000,0.0823796
422.5000,0.0824233
422.0000,0.0824764
421.5000,0.0825093
421.0000,0.0825493
420.5000,0.0825943
420.0000,0.0826344
419.5000,0.0826942
419.0000,0.0827428
418.5000,0.0828177
418.0000,0.0828715
417.5000,0.0829229
417.0000,0.0829781
416.5000,0.0830518
416.0000,0.0831287
415.5000,0.0832053
415.0000,0.0832722
414.5000,0.0833072
414.0000,0.0833806
413.5000,0.0834449
413.0000,0.0835073
412.5000,0.0835711
412.0000,0.0836389
411.5000,0.0837141
411.0000,0.0837771
410.5000,0.08384
410.0000,0.0839193
409.5000,0.0839945
409.0000,0.0840664
408.5000,0.0841581
408.0000,0.084269
407.5000,0.0843504
407.0000,0.0844082
406.5000,0.0844827
406.0000,0.0845277
405.5000,0.0845916
405.0000,0.0846637
404.5000,0.0847667
404.0000,0.0848315
403.5000,0.0849107
403.0000,0.0850141
402.5000,0.0850996
402.0000,0.0851676
401.5000,0.0852735
401.0000,0.0853527
400.5000,0.0854512
400.0000,0.0855541
399.5000,0.0856765
399.0000,0.0857427
398.5000,0.0858479
398.0000,0.0859503
397.5000,0.0860635
397.0000,0.0861528
396.5000,0.0862458
396.0000,0.08636
395.5000,0.0864718
395.0000,0.0865465
394.5000,0.0866508
394.0000,0.0867679
393.5000,0.0868918
393.0000,0.0869949
392.5000,0.0870756
392.0000,0.0871896
391.5000,0.0873048
391.0000,0.0874491
390.5000,0.0875838
390.0000,0.0877022
389.5000,0.087831
389.0000,0.0879262
388.5000,0.0880304
388.0000,0.0881409
387.5000,0.0882548
387.0000,0.0883608
386.5000,0.0884779
386.0000,0.0885983
385.5000,0.0887324
385.0000,0.0888536
384.5000,0.0889891
384.0000,0.0891016
383.5000,0.0892117
383.0000,0.0893722
382.5000,0.0894808
382.0000,0.0896084
381.5000,0.0897028
381.0000,0.0898548
380.5000,0.0899624
380.0000,0.0900703
379.5000,0.0901674
379.0000,0.0902938
378.5000,0.0904393
378.0000,0.0905513
377.5000,0.0906308
377.0000,0.0907695
376.5000,0.0908895
376.0000,0.0910001
375.5000,0.091114
375.0000,0.0912177
374.5000,0.0913118
374.0000,0.0914492
373.5000,0.0915614
373.0000,0.0916946
372.5000,0.0918181
372.0000,0.091942
371.5000,0.0920577
371.0000,0.0921847
370.5000,0.092309
370.0000,0.0924263
369.5000,0.0925161
369.0000,0.0925874
368.5000,0.0927158
368.0000,0.092838
367.5000,0.0929285
367.0000,0.0930243
366.5000,0.0931136
366.0000,0.0931892
365.5000,0.0933001
365.0000,0.0934023
364.5000,0.0935175
364.0000,0.0936121
363.5000,0.093752
363.0000,0.0938659
362.5000,0.0939893
362.0000,0.0940407
361.5000,0.0941531
361.0000,0.0942665
360.5000,0.0943817
360.0000,0.0944761
359.5000,0.0945891
359.0000,0.0946726
358.5000,0.0947582
358.0000,0.0948663
357.5000,0.0949564
357.0000,0.0950809
356.5000,0.0951906
356.0000,0.0952817
355.5000,0.0953717
355.0000,0.0955318
354.5000,0.0955793
354.0000,0.0956461
353.5000,0.0957421
353.0000,0.0958345
352.5000,0.0959289
352.0000,0.0960033
351.5000,0.0960839
351.0000,0.0962068
350.5000,0.0962825
350.0000,0.0963569
349.5000,0.0964682
349.0000,0.0965225
348.5000,0.0966263
348.0000,0.0967619
347.5000,0.0968161
347.0000,0.0969111
346.5000,0.096981
346.0000,0.0971224
345.5000,0.0972182
345.0000,0.0972535
344.5000,0.0973325
344.0000,0.0974651
343.5000,0.0975633
343.0000,0.0976852
342.5000,0.0978049
342.0000,0.0979058
341.5000,0.0980232
341.0000,0.0981405
340.5000,0.0982476
340.0000,0.098971
339.5000,0.0990863
339.0000,0.0992254
338.5000,0.0993282
338.0000,0.0994614
337.5000,0.0995641
337.0000,0.0996683
336.5000,0.0997799
336.0000,0.0999303
335.5000,0.100096
335.0000,0.100272
334.5000,0.100413
334.0000,0.100545
333.5000,0.100689
333.0000,0.100797
332.5000,0.100929
332.0000,0.101054
331.5000,0.101268
331.0000,0.101395
330.5000,0.101567
330.0000,0.101707
329.5000,0.101965
329.0000,0.102146
328.5000,0.102318
328.0000,0.102533
327.5000,0.102764
327.0000,0.102948
326.5000,0.103143
326.0000,0.103327
325.5000,0.103498
325.0000,0.10369
324.5000,0.103809
324.0000,0.104037
323.5000,0.104241
323.0000,0.10447
322.5000,0.104708
322.0000,0.104951
321.5000,0.105204
321.0000,0.105445
320.5000,0.105688
320.0000,0.105902
319.5000,0.106136
319.0000,0.106437
318.5000,0.106751
318.0000,0.106963
317.5000,0.107203
317.0000,0.107501
316.5000,0.107802
316.0000,0.10807
315.5000,0.1083
315.0000,0.108556
314.5000,0.108851
314.0000,0.109171
313.5000,0.109406
313.0000,0.109644
312.5000,0.109979
312.0000,0.110248
311.5000,0.110536
311.0000,0.110808
310.5000,0.111109
310.0000,0.111423
309.5000,0.111719
309.0000,0.112026
308.5000,0.112373
308.0000,0.11269
307.5000,0.113028
307.0000,0.113283
306.5000,0.113607
306.0000,0.113902
305.5000,0.114236
305.0000,0.114536
304.5000,0.114905
304.0000,0.115236
303.5000,0.115521
303.0000,0.115854
302.5000,0.116121
302.0000,0.116495
301.5000,0.116833
301.0000,0.117163
300.5000,0.117484
300.0000,0.117827
299.5000,0.118231
299.0000,0.118603
298.5000,0.118959
298.0000,0.119311
297.5000,0.119687
297.0000,0.120108
296.5000,0.120446
296.0000,0.120807
295.5000,0.121204
295.0000,0.121564
294.5000,0.121961
294.0000,0.122351
293.5000,0.12273
293.0000,0.123111
292.5000,0.123507
292.0000,0.123857
291.5000,0.124242
291.0000,0.124714
290.5000,0.125179
290.0000,0.125623
289.5000,0.126027
289.0000,0.126481
288.5000,0.126881
288.0000,0.127335
287.5000,0.127792
287.0000,0.128184
286.5000,0.128649
286.0000,0.129093
285.5000,0.129574
285.0000,0.130077
284.5000,0.13053
284.0000,0.131034
283.5000,0.13147
283.0000,0.131937
282.5000,0.132413
282.0000,0.132886
281.5000,0.133368
281.0000,0.133842
280.5000,0.134349
280.0000,0.134882
279.5000,0.135361
279.0000,0.135897
278.5000,0.136356
278.0000,0.136904
277.5000,0.137428
277.0000,0.137944
276.5000,0.138456
276.0000,0.138996
275.5000,0.139514
275.0000,0.14
274.5000,0.140491
274.0000,0.140983
273.5000,0.141512
273.0000,0.142021
272.5000,0.142543
272.0000,0.14302
271.5000,0.143535
271.0000,0.144087
270.5000,0.144593
270.0000,0.145094
269.5000,0.145603
269.0000,0.146068
268.5000,0.146543
268.0000,0.146962
267.5000,0.147423
267.0000,0.147908
266.5000,0.148362
266.0000,0.148825
265.5000,0.149286
265.0000,0.14972
264.5000,0.15013
264.0000,0.150514
263.5000,0.150948
263.0000,0.151344
262.5000,0.151761
262.0000,0.152094
261.5000,0.152482
261.0000,0.152841
260.5000,0.15319
260.0000,0.153532
259.5000,0.153881
259.0000,0.154216
258.5000,0.154509
258.0000,0.154825
257.5000,0.155133
257.0000,0.155433
256.5000,0.155718
256.0000,0.155979
255.5000,0.156224
255.0000,0.156436
254.5000,0.156665
254.0000,0.156889
253.5000,0.157082
253.0000,0.157278
252.5000,0.157516
252.0000,0.157722
251.5000,0.157928
251.0000,0.15811
250.5000,0.158292
250.0000,0.158442
249.5000,0.158616
249.0000,0.158736
248.5000,0.158894
248.0000,0.15905
247.5000,0.159173
247.0000,0.159304
246.5000,0.159417
246.0000,0.159552
245.5000,0.159655
245.0000,0.159747
244.5000,0.159899
244.0000,0.16003
243.5000,0.160133
243.0000,0.160251
242.5000,0.160356
242.0000,0.160444
241.5000,0.16053
241.0000,0.160582
240.5000,0.160665
240.0000,0.160774
239.5000,0.160846
239.0000,0.160941
238.5000,0.161038
238.0000,0.161135
237.5000,0.161227
237.0000,0.161311
236.5000,0.161365
236.0000,0.161466
235.5000,0.161535
235.0000,0.161587
234.5000,0.161669
234.0000,0.161724
233.5000,0.161785
233.0000,0.161876
232.5000,0.161947
232.0000,0.162012
231.5000,0.16208
231.0000,0.162137
230.5000,0.162208
230.0000,0.162257
229.5000,0.162342
229.0000,0.162401
228.5000,0.162402
228.0000,0.162462
227.5000,0.162508
227.0000,0.162529
226.5000,0.162562
226.0000,0.162611
225.5000,0.162623
225.0000,0.162653
224.5000,0.162684
224.0000,0.162681
223.5000,0.162717
223.0000,0.162699
222.5000,0.162689
222.0000,0.162645
221.5000,0.162631
221.0000,0.162611
220.5000,0.162572
220.0000,0.162474
219.5000,0.162426
219.0000,0.162346
218.5000,0.162264
218.0000,0.162197
217.5000,0.162096
217.0000,0.161965
216.5000,0.161872
216.0000,0.161737
215.5000,0.161608
215.0000,0.161444
214.5000,0.161276
214.0000,0.161103
213.5000,0.160883
213.0000,0.160693
212.5000,0.16051
212.0000,0.16025
211.5000,0.160008
211.0000,0.159735
210.5000,0.15947
210.0000,0.159162
209.5000,0.158897
209.0000,0.158564
208.5000,0.158278
208.0000,0.15795
207.5000,0.157636
207.0000,0.157293
206.5000,0.156978
206.0000,0.156708
205.5000,0.156403
205.0000,0.156084
204.5000,0.155827
204.0000,0.155562
203.5000,0.1553
203.0000,0.155013
202.5000,0.154784
202.0000,0.154548
201.5000,0.154371
201.0000,0.15425
200.5000,0.154068
200.0000,0.153973

##### Extended Information
[Comments]
Sample name,452 Au Runpeng PRE centrifuga 1000RCF_10-01-25
Comment,452 Au Runpeng PRE centrifuga 1000RCF_10-01-25
User
Division
Company,Uni PD

[Detailed Information]
Creation date,10/01/2025 10:22

Data array type,Linear data array
Horizontal axis,Wavelength [nm]
Vertical axis,Abs
Start,1200 nm
End,200 nm
Data interval,0.5 nm
Data points,2001    

[Measurement Information]
Instrument name,Jasco V-770
Model name,V-770
Serial No.,A035961801

Accessory,USE-753
Accessory S/N,A035961801
  Cell,
  Ref. beam,

Measurement date,10/01/2025 10:22

Parameter file,D:\DATI UTENTI\REFFATTO C\Reffatto 200-1200nm.uvsp
Photometric mode,Abs
Measurement range,1200 - 200 nm
Data interval,0.5 nm
UV/Vis bandwidth,1.0 nm
NIR bandwidth,8.0 nm
UV/Vis response,0.96 sec
NIR response,0.96 sec
Scan speed,1000 nm/min
Change source at,340 nm
Change grating at,850 nm
Light source,D2/WI
Filter exchange,Step
Correction,Baseline

