TITLE,454 Au Runpeng POST centrifuga 1000RCF sedim_10-01-25
DATA TYPE,ULTRAVIOLET SPECTRUM
ORIGIN,JASCO
OWNER,
DATE,25/01/10
TIME,11:52:53
SPECTROMETER/DATA SYSTEM,
LOCALE,1040
RESOLUTION,
DELTAX,-0.5
XUNITS,NANOMETERS
YUNITS,ABSORBANCE
FIRSTX, 1200.0000
LASTX,  200.0000
NPOINTS,    2001
FIRSTY,     0.00294
MAXY,     0.60660
MINY,     0.00255
XYDATA
1200.0000,0.00294402
1199.5000,0.00292075
1199.0000,0.00294273
1198.5000,0.0029307
1198.0000,0.00293512
1197.5000,0.00294672
1197.0000,0.00293165
1196.5000,0.00291387
1196.0000,0.00290031
1195.5000,0.0029165
1195.0000,0.00293537
1194.5000,0.00294104
1194.0000,0.00292677
1193.5000,0.00290477
1193.0000,0.00288554
1192.5000,0.00286496
1192.0000,0.00284537
1191.5000,0.00288464
1191.0000,0.0028635
1190.5000,0.00288559
1190.0000,0.00287928
1189.5000,0.00290824
1189.0000,0.00290389
1188.5000,0.00289293
1188.0000,0.00285599
1187.5000,0.00287372
1187.0000,0.00288317
1186.5000,0.00288881
1186.0000,0.00287638
1185.5000,0.00288504
1185.0000,0.002895
1184.5000,0.00292315
1184.0000,0.00295653
1183.5000,0.00296924
1183.0000,0.00296721
1182.5000,0.00297398
1182.0000,0.00296
1181.5000,0.00295978
1181.0000,0.00298414
1180.5000,0.00300297
1180.0000,0.00298006
1179.5000,0.00299882
1179.0000,0.00297355
1178.5000,0.00298135
1178.0000,0.00299196
1177.5000,0.00302906
1177.0000,0.00304377
1176.5000,0.00305673
1176.0000,0.00304285
1175.5000,0.00303594
1175.0000,0.00302058
1174.5000,0.00302317
1174.0000,0.00304278
1173.5000,0.00304409
1173.0000,0.00306089
1172.5000,0.0030464
1172.0000,0.00308077
1171.5000,0.00308136
1171.0000,0.00308395
1170.5000,0.00306005
1170.0000,0.00307768
1169.5000,0.00306853
1169.0000,0.00311537
1168.5000,0.00309396
1168.0000,0.0030813
1167.5000,0.00306502
1167.0000,0.00307681
1166.5000,0.00310478
1166.0000,0.00313087
1165.5000,0.00312233
1165.0000,0.00313007
1164.5000,0.00310547
1164.0000,0.003137
1163.5000,0.00308847
1163.0000,0.00308922
1162.5000,0.00306862
1162.0000,0.00306473
1161.5000,0.00299494
1161.0000,0.00300764
1160.5000,0.00300597
1160.0000,0.00301992
1159.5000,0.00297264
1159.0000,0.00298933
1158.5000,0.0029394
1158.0000,0.00295309
1157.5000,0.00288243
1157.0000,0.00287607
1156.5000,0.00284396
1156.0000,0.00286248
1155.5000,0.00283445
1155.0000,0.00282716
1154.5000,0.00283047
1154.0000,0.00280124
1153.5000,0.00278529
1153.0000,0.00276667
1152.5000,0.00272536
1152.0000,0.00271519
1151.5000,0.00269792
1151.0000,0.0026784
1150.5000,0.00264797
1150.0000,0.00262306
1149.5000,0.0026122
1149.0000,0.00257989
1148.5000,0.0025753
1148.0000,0.0025588
1147.5000,0.00259753
1147.0000,0.00259706
1146.5000,0.00259277
1146.0000,0.00257126
1145.5000,0.00260973
1145.0000,0.00257926
1144.5000,0.00256442
1144.0000,0.00254807
1143.5000,0.00259467
1143.0000,0.00260379
1142.5000,0.00266131
1142.0000,0.0026211
1141.5000,0.00266435
1141.0000,0.00266521
1140.5000,0.00271496
1140.0000,0.00269133
1139.5000,0.00271831
1139.0000,0.00270991
1138.5000,0.00274779
1138.0000,0.00276457
1137.5000,0.00280185
1137.0000,0.00279713
1136.5000,0.00285558
1136.0000,0.00293386
1135.5000,0.00298643
1135.0000,0.0030099
1134.5000,0.00304746
1134.0000,0.00305558
1133.5000,0.00311242
1133.0000,0.00314955
1132.5000,0.00321089
1132.0000,0.00321931
1131.5000,0.00325496
1131.0000,0.00326507
1130.5000,0.0033169
1130.0000,0.00336252
1129.5000,0.00339214
1129.0000,0.00342668
1128.5000,0.00345842
1128.0000,0.00348296
1127.5000,0.00350347
1127.0000,0.00353144
1126.5000,0.00354715
1126.0000,0.00359956
1125.5000,0.00360505
1125.0000,0.00360539
1124.5000,0.00360907
1124.0000,0.00363167
1123.5000,0.00364869
1123.0000,0.00369559
1122.5000,0.00369806
1122.0000,0.00373221
1121.5000,0.00375156
1121.0000,0.00378445
1120.5000,0.00377614
1120.0000,0.00376183
1119.5000,0.003754
1119.0000,0.00376248
1118.5000,0.00374334
1118.0000,0.00379553
1117.5000,0.00377148
1117.0000,0.00380055
1116.5000,0.00379441
1116.0000,0.00382509
1115.5000,0.00379901
1115.0000,0.00383885
1114.5000,0.00382382
1114.0000,0.00387148
1113.5000,0.00386988
1113.0000,0.00389882
1112.5000,0.00390348
1112.0000,0.00393029
1111.5000,0.0039014
1111.0000,0.00389687
1110.5000,0.00387363
1110.0000,0.00387762
1109.5000,0.00389448
1109.0000,0.00395313
1108.5000,0.00396751
1108.0000,0.00399207
1107.5000,0.00397684
1107.0000,0.00396724
1106.5000,0.00395972
1106.0000,0.00397883
1105.5000,0.0039681
1105.0000,0.00396028
1104.5000,0.00398839
1104.0000,0.00398605
1103.5000,0.00397325
1103.0000,0.0039876
1102.5000,0.00400717
1102.0000,0.00403074
1101.5000,0.00403376
1101.0000,0.00399202
1100.5000,0.00399469
1100.0000,0.00398891
1099.5000,0.00400768
1099.0000,0.00400804
1098.5000,0.00403394
1098.0000,0.00399161
1097.5000,0.00399708
1097.0000,0.00396856
1096.5000,0.0039778
1096.0000,0.00398689
1095.5000,0.00403589
1095.0000,0.00402773
1094.5000,0.00404696
1094.0000,0.00404609
1093.5000,0.00405636
1093.0000,0.00399224
1092.5000,0.00402677
1092.0000,0.00402947
1091.5000,0.00406459
1091.0000,0.00406851
1090.5000,0.00408929
1090.0000,0.00407572
1089.5000,0.00410178
1089.0000,0.00411583
1088.5000,0.00410912
1088.0000,0.00410751
1087.5000,0.00414918
1087.0000,0.00412024
1086.5000,0.00413331
1086.0000,0.00409785
1085.5000,0.00412165
1085.0000,0.00414903
1084.5000,0.00415216
1084.0000,0.00417234
1083.5000,0.00417128
1083.0000,0.00417401
1082.5000,0.00416216
1082.0000,0.00418269
1081.5000,0.00419178
1081.0000,0.00422561
1080.5000,0.00420029
1080.0000,0.00420561
1079.5000,0.00415774
1079.0000,0.00418866
1078.5000,0.00418841
1078.0000,0.00420574
1077.5000,0.00420314
1077.0000,0.0042504
1076.5000,0.00421171
1076.0000,0.0042404
1075.5000,0.00420516
1075.0000,0.00424446
1074.5000,0.00423516
1074.0000,0.00424509
1073.5000,0.0042071
1073.0000,0.00423565
1072.5000,0.00423261
1072.0000,0.00423366
1071.5000,0.00421882
1071.0000,0.00428577
1070.5000,0.00425984
1070.0000,0.00427193
1069.5000,0.00426987
1069.0000,0.00431054
1068.5000,0.00431236
1068.0000,0.00431543
1067.5000,0.00432305
1067.0000,0.00433036
1066.5000,0.00431312
1066.0000,0.00433233
1065.5000,0.00432196
1065.0000,0.00433737
1064.5000,0.00431888
1064.0000,0.00433188
1063.5000,0.00436647
1063.0000,0.00435821
1062.5000,0.00435542
1062.0000,0.00436968
1061.5000,0.00437033
1061.0000,0.0043823
1060.5000,0.00437202
1060.0000,0.00436698
1059.5000,0.00438712
1059.0000,0.0043669
1058.5000,0.00437914
1058.0000,0.00438636
1057.5000,0.00442797
1057.0000,0.00439401
1056.5000,0.00438809
1056.0000,0.00439674
1055.5000,0.00441762
1055.0000,0.00440662
1054.5000,0.00441622
1054.0000,0.00444543
1053.5000,0.00444201
1053.0000,0.00441115
1052.5000,0.00442681
1052.0000,0.00442296
1051.5000,0.00442003
1051.0000,0.00440351
1050.5000,0.00443964
1050.0000,0.00444121
1049.5000,0.004467
1049.0000,0.00445205
1048.5000,0.00450986
1048.0000,0.00448802
1047.5000,0.00450031
1047.0000,0.00451167
1046.5000,0.00452405
1046.0000,0.00451125
1045.5000,0.00451547
1045.0000,0.00448679
1044.5000,0.00451093
1044.0000,0.0045078
1043.5000,0.00455523
1043.0000,0.00455226
1042.5000,0.00454855
1042.0000,0.00454146
1041.5000,0.00455132
1041.0000,0.00454386
1040.5000,0.00455906
1040.0000,0.00456305
1039.5000,0.00455075
1039.0000,0.0045539
1038.5000,0.00457787
1038.0000,0.00456187
1037.5000,0.00457257
1037.0000,0.00460188
1036.5000,0.00457385
1036.0000,0.00457189
1035.5000,0.00455523
1035.0000,0.00460366
1034.5000,0.004603
1034.0000,0.00462016
1033.5000,0.00459608
1033.0000,0.00464339
1032.5000,0.00459857
1032.0000,0.00463946
1031.5000,0.00463699
1031.0000,0.0046736
1030.5000,0.00467563
1030.0000,0.00471747
1029.5000,0.00468349
1029.0000,0.00474034
1028.5000,0.00471725
1028.0000,0.00475858
1027.5000,0.00470475
1027.0000,0.00473549
1026.5000,0.00469777
1026.0000,0.00476617
1025.5000,0.00471058
1025.0000,0.00479964
1024.5000,0.0047928
1024.0000,0.00484835
1023.5000,0.00483081
1023.0000,0.0048445
1022.5000,0.0047925
1022.0000,0.00485118
1021.5000,0.00481673
1021.0000,0.00483934
1020.5000,0.00482273
1020.0000,0.00487268
1019.5000,0.00487199
1019.0000,0.00490267
1018.5000,0.00488718
1018.0000,0.00488985
1017.5000,0.00487053
1017.0000,0.00486121
1016.5000,0.00490365
1016.0000,0.00493322
1015.5000,0.00492957
1015.0000,0.00495635
1014.5000,0.004929
1014.0000,0.00491564
1013.5000,0.00495575
1013.0000,0.00499404
1012.5000,0.00501712
1012.0000,0.0050198
1011.5000,0.00500987
1011.0000,0.00502887
1010.5000,0.00509462
1010.0000,0.0050749
1009.5000,0.00509238
1009.0000,0.00509351
1008.5000,0.00511924
1008.0000,0.00511498
1007.5000,0.00517852
1007.0000,0.00517308
1006.5000,0.00522441
1006.0000,0.00519547
1005.5000,0.00525277
1005.0000,0.0052218
1004.5000,0.00525938
1004.0000,0.00526488
1003.5000,0.00530088
1003.0000,0.00528811
1002.5000,0.00533651
1002.0000,0.00531651
1001.5000,0.00539402
1001.0000,0.00539097
1000.5000,0.00539307
1000.0000,0.00537336
999.5000,0.00540209
999.0000,0.00536612
998.5000,0.00541468
998.0000,0.00539734
997.5000,0.00541372
997.0000,0.00538029
996.5000,0.00540995
996.0000,0.00539665
995.5000,0.00546993
995.0000,0.00546231
994.5000,0.0054662
994.0000,0.00545376
993.5000,0.00550141
993.0000,0.0054536
992.5000,0.00544997
992.0000,0.00545997
991.5000,0.00544786
991.0000,0.00544779
990.5000,0.00547423
990.0000,0.00549416
989.5000,0.00547404
989.0000,0.00554258
988.5000,0.00556148
988.0000,0.00553206
987.5000,0.00553846
987.0000,0.00553169
986.5000,0.00549413
986.0000,0.00552468
985.5000,0.00545802
985.0000,0.00551265
984.5000,0.00550199
984.0000,0.0055369
983.5000,0.00544139
983.0000,0.00548304
982.5000,0.00548141
982.0000,0.00551662
981.5000,0.00551995
981.0000,0.0055508
980.5000,0.00552068
980.0000,0.00558332
979.5000,0.00547141
979.0000,0.00551823
978.5000,0.00544769
978.0000,0.00551977
977.5000,0.00549086
977.0000,0.00560666
976.5000,0.00560147
976.0000,0.0056639
975.5000,0.00559344
975.0000,0.0056838
974.5000,0.0056238
974.0000,0.00563854
973.5000,0.00561179
973.0000,0.00565971
972.5000,0.00561936
972.0000,0.00567411
971.5000,0.00562921
971.0000,0.00571391
970.5000,0.00568346
970.0000,0.00572721
969.5000,0.00568123
969.0000,0.0056705
968.5000,0.00568042
968.0000,0.00569563
967.5000,0.00574719
967.0000,0.00576863
966.5000,0.00575521
966.0000,0.00577192
965.5000,0.00576746
965.0000,0.00580834
964.5000,0.00578074
964.0000,0.00574365
963.5000,0.00583251
963.0000,0.00575831
962.5000,0.00577968
962.0000,0.00572834
961.5000,0.00575689
961.0000,0.00568968
960.5000,0.00570023
960.0000,0.00562545
959.5000,0.00571661
959.0000,0.00564548
958.5000,0.00566888
958.0000,0.00567036
957.5000,0.00571746
957.0000,0.00568083
956.5000,0.00570187
956.0000,0.00568675
955.5000,0.0057707
955.0000,0.00566194
954.5000,0.00571227
954.0000,0.00572587
953.5000,0.00581881
953.0000,0.00580515
952.5000,0.00584166
952.0000,0.00582332
951.5000,0.0058581
951.0000,0.00584091
950.5000,0.00585257
950.0000,0.00587219
949.5000,0.00581841
949.0000,0.00579294
948.5000,0.00586932
948.0000,0.00588691
947.5000,0.0059404
947.0000,0.00603631
946.5000,0.00608556
946.0000,0.00610639
945.5000,0.00606126
945.0000,0.00609623
944.5000,0.00602839
944.0000,0.00612711
943.5000,0.00604303
943.0000,0.0061063
942.5000,0.00609891
942.0000,0.00609597
941.5000,0.00604047
941.0000,0.00609316
940.5000,0.00607351
940.0000,0.0061647
939.5000,0.0060445
939.0000,0.00614186
938.5000,0.00608496
938.0000,0.00613935
937.5000,0.00606139
937.0000,0.00614189
936.5000,0.0061141
936.0000,0.00618598
935.5000,0.00609761
935.0000,0.00621252
934.5000,0.00616482
934.0000,0.00621363
933.5000,0.00621887
933.0000,0.00625487
932.5000,0.00615858
932.0000,0.00623988
931.5000,0.00607546
931.0000,0.00616935
930.5000,0.00608732
930.0000,0.0061683
929.5000,0.00614292
929.0000,0.00617285
928.5000,0.0061922
928.0000,0.00621504
927.5000,0.0061966
927.0000,0.00626391
926.5000,0.00622551
926.0000,0.0063363
925.5000,0.00632873
925.0000,0.00637219
924.5000,0.00636432
924.0000,0.0063593
923.5000,0.006401
923.0000,0.00646923
922.5000,0.00649962
922.0000,0.006531
921.5000,0.00658133
921.0000,0.00663638
920.5000,0.0065957
920.0000,0.00656203
919.5000,0.0066515
919.0000,0.00658787
918.5000,0.0066046
918.0000,0.00650078
917.5000,0.00651127
917.0000,0.00654359
916.5000,0.00662663
916.0000,0.00657059
915.5000,0.00668484
915.0000,0.00664501
914.5000,0.00677598
914.0000,0.00680335
913.5000,0.00685779
913.0000,0.00686142
912.5000,0.00688623
912.0000,0.00681244
911.5000,0.00688085
911.0000,0.00683786
910.5000,0.00693259
910.0000,0.00687725
909.5000,0.00696114
909.0000,0.00691115
908.5000,0.00694295
908.0000,0.00693281
907.5000,0.00700117
907.0000,0.00696443
906.5000,0.00704661
906.0000,0.00692623
905.5000,0.00700039
905.0000,0.00688655
904.5000,0.00692534
904.0000,0.00698466
903.5000,0.00692695
903.0000,0.00687383
902.5000,0.00689417
902.0000,0.00702408
901.5000,0.00706949
901.0000,0.00714037
900.5000,0.00705515
900.0000,0.00711786
899.5000,0.00715577
899.0000,0.00712104
898.5000,0.00705669
898.0000,0.00705554
897.5000,0.00715027
897.0000,0.00729589
896.5000,0.00739642
896.0000,0.00756649
895.5000,0.00746947
895.0000,0.00752338
894.5000,0.00751492
894.0000,0.00764661
893.5000,0.00758255
893.0000,0.00769122
892.5000,0.0076954
892.0000,0.00782277
891.5000,0.00763849
891.0000,0.00777856
890.5000,0.00756964
890.0000,0.00774862
889.5000,0.00768202
889.0000,0.00795595
888.5000,0.00783546
888.0000,0.00795386
887.5000,0.00792831
887.0000,0.00820028
886.5000,0.00821951
886.0000,0.00840378
885.5000,0.00836518
885.0000,0.0085754
884.5000,0.00861159
884.0000,0.00874337
883.5000,0.00862499
883.0000,0.00879619
882.5000,0.00876317
882.0000,0.00883985
881.5000,0.00864404
881.0000,0.00860692
880.5000,0.00845955
880.0000,0.00843189
879.5000,0.00853874
879.0000,0.00880277
878.5000,0.00872676
878.0000,0.00879023
877.5000,0.00878276
877.0000,0.00884248
876.5000,0.00878598
876.0000,0.00872019
875.5000,0.00883514
875.0000,0.00885063
874.5000,0.00900224
874.0000,0.00910375
873.5000,0.00913231
873.0000,0.00904967
872.5000,0.00916732
872.0000,0.00903265
871.5000,0.00910788
871.0000,0.00902227
870.5000,0.00920976
870.0000,0.00910197
869.5000,0.00920941
869.0000,0.00898058
868.5000,0.00913424
868.0000,0.00890934
867.5000,0.00912994
867.0000,0.0089801
866.5000,0.00899778
866.0000,0.00909883
865.5000,0.00936443
865.0000,0.00931658
864.5000,0.00963148
864.0000,0.00965231
863.5000,0.0097958
863.0000,0.00952749
862.5000,0.0096642
862.0000,0.00955072
861.5000,0.00970125
861.0000,0.00954298
860.5000,0.00971524
860.0000,0.00972184
859.5000,0.00998688
859.0000,0.00985072
858.5000,0.00992218
858.0000,0.00970449
857.5000,0.00980807
857.0000,0.00968455
856.5000,0.00992092
856.0000,0.0100053
855.5000,0.0101487
855.0000,0.0101502
854.5000,0.00999718
854.0000,0.0101831
853.5000,0.0101108
853.0000,0.0101122
852.5000,0.00997527
852.0000,0.0100925
851.5000,0.00994698
851.0000,0.0102509
850.5000,0.0101796
850.0000,0.00963178
849.5000,0.00964704
849.0000,0.00968363
848.5000,0.00971565
848.0000,0.00968571
847.5000,0.00971897
847.0000,0.00971927
846.5000,0.00975728
846.0000,0.00971279
845.5000,0.00973044
845.0000,0.00981347
844.5000,0.0098149
844.0000,0.00982036
843.5000,0.00980973
843.0000,0.00982297
842.5000,0.0098456
842.0000,0.00990946
841.5000,0.00995929
841.0000,0.00998608
840.5000,0.0100414
840.0000,0.0101231
839.5000,0.010128
839.0000,0.0101046
838.5000,0.0101024
838.0000,0.0101617
837.5000,0.0102199
837.0000,0.0102606
836.5000,0.0102729
836.0000,0.0103261
835.5000,0.010332
835.0000,0.0103307
834.5000,0.010407
834.0000,0.0104375
833.5000,0.0104561
833.0000,0.0104742
832.5000,0.0105374
832.0000,0.0105933
831.5000,0.0106818
831.0000,0.0107483
830.5000,0.0107806
830.0000,0.0107925
829.5000,0.0108396
829.0000,0.0108863
828.5000,0.0109416
828.0000,0.010975
827.5000,0.0110256
827.0000,0.0110301
826.5000,0.0111343
826.0000,0.0111432
825.5000,0.0111803
825.0000,0.0111959
824.5000,0.0112468
824.0000,0.0112794
823.5000,0.0113146
823.0000,0.011371
822.5000,0.0114163
822.0000,0.0114169
821.5000,0.0114306
821.0000,0.0114556
820.5000,0.011491
820.0000,0.0115385
819.5000,0.0115946
819.0000,0.011648
818.5000,0.0116349
818.0000,0.0117278
817.5000,0.011775
817.0000,0.0118651
816.5000,0.0118971
816.0000,0.0118977
815.5000,0.0119137
815.0000,0.0119078
814.5000,0.0119613
814.0000,0.0119993
813.5000,0.0119909
813.0000,0.0119839
812.5000,0.0120099
812.0000,0.0120788
811.5000,0.0121042
811.0000,0.0121433
810.5000,0.0121258
810.0000,0.0121182
809.5000,0.0121696
809.0000,0.0121745
808.5000,0.0122137
808.0000,0.0122211
807.5000,0.0122624
807.0000,0.0122931
806.5000,0.0123604
806.0000,0.0124072
805.5000,0.0124458
805.0000,0.0125232
804.5000,0.0125877
804.0000,0.0125728
803.5000,0.0126348
803.0000,0.0126524
802.5000,0.0127052
802.0000,0.0127074
801.5000,0.0127416
801.0000,0.0127533
800.5000,0.0127651
800.0000,0.0128172
799.5000,0.0128577
799.0000,0.0129418
798.5000,0.0129881
798.0000,0.0130566
797.5000,0.0130912
797.0000,0.0131094
796.5000,0.013142
796.0000,0.0131512
795.5000,0.0132097
795.0000,0.0132599
794.5000,0.0132908
794.0000,0.0133459
793.5000,0.0133737
793.0000,0.013425
792.5000,0.0134495
792.0000,0.0134704
791.5000,0.0135116
791.0000,0.0135518
790.5000,0.0135726
790.0000,0.0136149
789.5000,0.0136676
789.0000,0.0136929
788.5000,0.013702
788.0000,0.0137623
787.5000,0.0137802
787.0000,0.0138102
786.5000,0.0138617
786.0000,0.0138789
785.5000,0.0139483
785.0000,0.0139413
784.5000,0.0139818
784.0000,0.0140588
783.5000,0.0140896
783.0000,0.014113
782.5000,0.0141259
782.0000,0.0141374
781.5000,0.0141887
781.0000,0.0142451
780.5000,0.0143087
780.0000,0.0143731
779.5000,0.0144309
779.0000,0.0144628
778.5000,0.0145294
778.0000,0.0145653
777.5000,0.0146068
777.0000,0.0146614
776.5000,0.0147017
776.0000,0.0147765
775.5000,0.0148201
775.0000,0.0148635
774.5000,0.0149098
774.0000,0.0149591
773.5000,0.0150065
773.0000,0.0150606
772.5000,0.0151049
772.0000,0.0151625
771.5000,0.0151997
771.0000,0.0152637
770.5000,0.0152982
770.0000,0.0153419
769.5000,0.0153576
769.0000,0.0154471
768.5000,0.0155134
768.0000,0.0155229
767.5000,0.015556
767.0000,0.0156019
766.5000,0.0156393
766.0000,0.0157244
765.5000,0.0157638
765.0000,0.015827
764.5000,0.0158578
764.0000,0.0158936
763.5000,0.0159019
763.0000,0.0159465
762.5000,0.0160096
762.0000,0.0160621
761.5000,0.0160986
761.0000,0.0161592
760.5000,0.0161872
760.0000,0.0162372
759.5000,0.0163028
759.0000,0.016369
758.5000,0.0164301
758.0000,0.0164796
757.5000,0.0165351
757.0000,0.0165873
756.5000,0.0166289
756.0000,0.0166738
755.5000,0.0167393
755.0000,0.0167905
754.5000,0.016859
754.0000,0.0169337
753.5000,0.0170025
753.0000,0.0170653
752.5000,0.0171162
752.0000,0.0171899
751.5000,0.0172607
751.0000,0.0173324
750.5000,0.0173894
750.0000,0.0174478
749.5000,0.0175157
749.0000,0.0175613
748.5000,0.0176408
748.0000,0.0177343
747.5000,0.0178163
747.0000,0.0178811
746.5000,0.0179412
746.0000,0.0179956
745.5000,0.0180825
745.0000,0.0181372
744.5000,0.0182586
744.0000,0.0183278
743.5000,0.0183626
743.0000,0.018422
742.5000,0.018495
742.0000,0.0185551
741.5000,0.0186251
741.0000,0.0186824
740.5000,0.0187761
740.0000,0.0189106
739.5000,0.0189467
739.0000,0.0190142
738.5000,0.0190724
738.0000,0.0191422
737.5000,0.0192005
737.0000,0.0193052
736.5000,0.0193704
736.0000,0.0194645
735.5000,0.019525
735.0000,0.0196143
734.5000,0.0196928
734.0000,0.0197671
733.5000,0.0198613
733.0000,0.0199381
732.5000,0.0200137
732.0000,0.0200819
731.5000,0.0201844
731.0000,0.0202666
730.5000,0.0203401
730.0000,0.0204166
729.5000,0.0204695
729.0000,0.020559
728.5000,0.020625
728.0000,0.0207047
727.5000,0.0207974
727.0000,0.0208652
726.5000,0.0209499
726.0000,0.021052
725.5000,0.0211391
725.0000,0.0212414
724.5000,0.0213525
724.0000,0.0214521
723.5000,0.0215736
723.0000,0.0216753
722.5000,0.0217678
722.0000,0.0218788
721.5000,0.02195
721.0000,0.0220444
720.5000,0.0221464
720.0000,0.0222316
719.5000,0.0223174
719.0000,0.0224186
718.5000,0.0225335
718.0000,0.0226268
717.5000,0.0227195
717.0000,0.022824
716.5000,0.0229263
716.0000,0.023031
715.5000,0.0231154
715.0000,0.0232206
714.5000,0.0233375
714.0000,0.0234451
713.5000,0.0235685
713.0000,0.0236869
712.5000,0.0238118
712.0000,0.023913
711.5000,0.0240115
711.0000,0.0241356
710.5000,0.0242486
710.0000,0.0243619
709.5000,0.0244602
709.0000,0.0245862
708.5000,0.0247183
708.0000,0.0248284
707.5000,0.0249372
707.0000,0.025065
706.5000,0.0251878
706.0000,0.0252983
705.5000,0.0254332
705.0000,0.0255521
704.5000,0.0256796
704.0000,0.0258085
703.5000,0.0259564
703.0000,0.0260782
702.5000,0.0262015
702.0000,0.0263419
701.5000,0.0264816
701.0000,0.0266249
700.5000,0.0267719
700.0000,0.0269096
699.5000,0.0270592
699.0000,0.0271999
698.5000,0.0273451
698.0000,0.0274915
697.5000,0.0276441
697.0000,0.0277829
696.5000,0.0279186
696.0000,0.02807
695.5000,0.0282125
695.0000,0.0283614
694.5000,0.0285023
694.0000,0.0286513
693.5000,0.028826
693.0000,0.0289572
692.5000,0.0290894
692.0000,0.029239
691.5000,0.0293933
691.0000,0.0295351
690.5000,0.0296792
690.0000,0.0298399
689.5000,0.0300032
689.0000,0.0301613
688.5000,0.0303306
688.0000,0.0305154
687.5000,0.0306842
687.0000,0.0308779
686.5000,0.0310184
686.0000,0.0311814
685.5000,0.031355
685.0000,0.0315588
684.5000,0.0317474
684.0000,0.0319671
683.5000,0.0321676
683.0000,0.0323818
682.5000,0.032578
682.0000,0.0327788
681.5000,0.0329801
681.0000,0.0331977
680.5000,0.0334005
680.0000,0.0335956
679.5000,0.0337944
679.0000,0.0340159
678.5000,0.0342242
678.0000,0.0344273
677.5000,0.0346362
677.0000,0.0348629
676.5000,0.0350781
676.0000,0.0353048
675.5000,0.0355216
675.0000,0.0357411
674.5000,0.0359568
674.0000,0.0361795
673.5000,0.0364035
673.0000,0.0366362
672.5000,0.0368706
672.0000,0.0370966
671.5000,0.03733
671.0000,0.0375644
670.5000,0.037841
670.0000,0.0381028
669.5000,0.0383591
669.0000,0.0386017
668.5000,0.0388684
668.0000,0.0391326
667.5000,0.0393935
667.0000,0.0396534
666.5000,0.0399226
666.0000,0.0402065
665.5000,0.040475
665.0000,0.0407444
664.5000,0.0410314
664.0000,0.0413291
663.5000,0.0416175
663.0000,0.0418927
662.5000,0.0421928
662.0000,0.0424941
661.5000,0.0427975
661.0000,0.0430934
660.5000,0.0433963
660.0000,0.0437116
659.5000,0.0440267
659.0000,0.0443528
658.5000,0.0446726
658.0000,0.0450025
657.5000,0.0453228
657.0000,0.0456737
656.5000,0.046017
656.0000,0.0463445
655.5000,0.0466945
655.0000,0.0470329
654.5000,0.0473859
654.0000,0.0477417
653.5000,0.0480868
653.0000,0.048449
652.5000,0.0488033
652.0000,0.0491589
651.5000,0.0495429
651.0000,0.0499335
650.5000,0.0503124
650.0000,0.0506946
649.5000,0.0510901
649.0000,0.0514939
648.5000,0.0518898
648.0000,0.052281
647.5000,0.0526995
647.0000,0.0531232
646.5000,0.0535252
646.0000,0.0539294
645.5000,0.0543416
645.0000,0.0547603
644.5000,0.0552123
644.0000,0.0556576
643.5000,0.0561016
643.0000,0.0565518
642.5000,0.0570177
642.0000,0.0574759
641.5000,0.0579523
641.0000,0.0584077
640.5000,0.0588697
640.0000,0.059361
639.5000,0.0598387
639.0000,0.060342
638.5000,0.0608441
638.0000,0.061343
637.5000,0.0618796
637.0000,0.0623963
636.5000,0.0629402
636.0000,0.0634813
635.5000,0.0640306
635.0000,0.0645605
634.5000,0.0651279
634.0000,0.0656877
633.5000,0.0662737
633.0000,0.0668499
632.5000,0.0674333
632.0000,0.0680319
631.5000,0.0686365
631.0000,0.0692382
630.5000,0.0698646
630.0000,0.0705047
629.5000,0.0711458
629.0000,0.0717799
628.5000,0.0724069
628.0000,0.0730489
627.5000,0.0737126
627.0000,0.0743732
626.5000,0.0750551
626.0000,0.0757469
625.5000,0.0764375
625.0000,0.0771481
624.5000,0.0778649
624.0000,0.0786026
623.5000,0.0793421
623.0000,0.0800878
622.5000,0.0808381
622.0000,0.0816185
621.5000,0.0823871
621.0000,0.0831838
620.5000,0.0839825
620.0000,0.0848239
619.5000,0.0856568
619.0000,0.0864793
618.5000,0.0873272
618.0000,0.0881871
617.5000,0.0890593
617.0000,0.089942
616.5000,0.0908353
616.0000,0.0917451
615.5000,0.0926615
615.0000,0.093595
614.5000,0.0945468
614.0000,0.0955052
613.5000,0.0964713
613.0000,0.0974517
612.5000,0.0984511
612.0000,0.0994589
611.5000,0.100476
611.0000,0.101517
610.5000,0.10257
610.0000,0.10363
609.5000,0.104706
609.0000,0.105786
608.5000,0.106905
608.0000,0.108028
607.5000,0.109165
607.0000,0.110322
606.5000,0.111497
606.0000,0.112681
605.5000,0.113884
605.0000,0.115098
604.5000,0.116343
604.0000,0.117604
603.5000,0.118861
603.0000,0.120153
602.5000,0.121458
602.0000,0.122783
601.5000,0.124121
601.0000,0.12548
600.5000,0.126872
600.0000,0.128265
599.5000,0.129697
599.0000,0.131134
598.5000,0.132592
598.0000,0.134049
597.5000,0.135545
597.0000,0.137069
596.5000,0.138617
596.0000,0.140182
595.5000,0.141776
595.0000,0.14338
594.5000,0.145015
594.0000,0.146654
593.5000,0.148327
593.0000,0.150021
592.5000,0.15174
592.0000,0.153481
591.5000,0.155257
591.0000,0.157051
590.5000,0.15887
590.0000,0.160723
589.5000,0.162585
589.0000,0.164477
588.5000,0.166407
588.0000,0.168382
587.5000,0.170379
587.0000,0.172391
586.5000,0.174421
586.0000,0.176485
585.5000,0.178588
585.0000,0.180725
584.5000,0.182867
584.0000,0.185072
583.5000,0.187294
583.0000,0.189576
582.5000,0.191848
582.0000,0.194174
581.5000,0.196534
581.0000,0.198937
580.5000,0.201372
580.0000,0.203844
579.5000,0.206337
579.0000,0.208861
578.5000,0.211419
578.0000,0.21403
577.5000,0.216673
577.0000,0.219376
576.5000,0.222103
576.0000,0.224877
575.5000,0.227683
575.0000,0.230538
574.5000,0.233406
574.0000,0.236322
573.5000,0.239285
573.0000,0.242281
572.5000,0.245314
572.0000,0.248381
571.5000,0.251518
571.0000,0.254694
570.5000,0.257899
570.0000,0.261155
569.5000,0.264446
569.0000,0.267775
568.5000,0.271169
568.0000,0.274598
567.5000,0.278054
567.0000,0.281563
566.5000,0.285125
566.0000,0.288713
565.5000,0.292352
565.0000,0.296023
564.5000,0.299733
564.0000,0.303505
563.5000,0.307333
563.0000,0.311179
562.5000,0.315042
562.0000,0.31896
561.5000,0.322943
561.0000,0.326954
560.5000,0.331016
560.0000,0.335113
559.5000,0.339268
559.0000,0.34344
558.5000,0.347661
558.0000,0.351916
557.5000,0.356196
557.0000,0.360523
556.5000,0.364897
556.0000,0.369287
555.5000,0.373719
555.0000,0.378183
554.5000,0.382675
554.0000,0.38717
553.5000,0.391716
553.0000,0.396267
552.5000,0.400853
552.0000,0.405461
551.5000,0.410112
551.0000,0.414761
550.5000,0.41944
550.0000,0.424147
549.5000,0.428855
549.0000,0.433582
548.5000,0.438342
548.0000,0.443077
547.5000,0.447789
547.0000,0.452513
546.5000,0.457278
546.0000,0.462022
545.5000,0.466741
545.0000,0.471458
544.5000,0.476167
544.0000,0.480874
543.5000,0.485559
543.0000,0.490235
542.5000,0.49489
542.0000,0.499524
541.5000,0.504105
541.0000,0.508659
540.5000,0.513162
540.0000,0.51763
539.5000,0.522045
539.0000,0.526378
538.5000,0.530674
538.0000,0.534896
537.5000,0.539034
537.0000,0.54314
536.5000,0.547138
536.0000,0.551053
535.5000,0.554853
535.0000,0.558556
534.5000,0.562171
534.0000,0.565678
533.5000,0.56907
533.0000,0.572348
532.5000,0.575489
532.0000,0.578495
531.5000,0.5814
531.0000,0.58419
530.5000,0.58679
530.0000,0.589264
529.5000,0.591597
529.0000,0.59378
528.5000,0.595796
528.0000,0.59765
527.5000,0.599328
527.0000,0.600863
526.5000,0.602187
526.0000,0.603343
525.5000,0.604343
525.0000,0.605173
524.5000,0.605784
524.0000,0.606235
523.5000,0.606492
523.0000,0.606596
522.5000,0.606482
522.0000,0.606187
521.5000,0.605705
521.0000,0.605026
520.5000,0.604176
520.0000,0.603164
519.5000,0.601975
519.0000,0.600627
518.5000,0.599089
518.0000,0.597378
517.5000,0.595505
517.0000,0.593471
516.5000,0.591293
516.0000,0.588982
515.5000,0.586527
515.0000,0.583923
514.5000,0.58121
514.0000,0.578353
513.5000,0.57539
513.0000,0.572304
512.5000,0.569116
512.0000,0.565809
511.5000,0.562415
511.0000,0.558931
510.5000,0.555402
510.0000,0.552228
509.5000,0.548485
509.0000,0.544681
508.5000,0.540817
508.0000,0.5369
507.5000,0.532981
507.0000,0.528991
506.5000,0.524993
506.0000,0.520966
505.5000,0.516927
505.0000,0.512878
504.5000,0.508832
504.0000,0.504795
503.5000,0.500752
503.0000,0.496713
502.5000,0.492713
502.0000,0.488714
501.5000,0.484738
501.0000,0.480816
500.5000,0.476907
500.0000,0.473043
499.5000,0.469214
499.0000,0.465392
498.5000,0.461629
498.0000,0.457928
497.5000,0.454261
497.0000,0.450667
496.5000,0.447139
496.0000,0.44365
495.5000,0.440225
495.0000,0.436866
494.5000,0.433562
494.0000,0.430337
493.5000,0.427152
493.0000,0.424018
492.5000,0.420977
492.0000,0.418014
491.5000,0.41507
491.0000,0.412242
490.5000,0.409437
490.0000,0.406725
489.5000,0.404065
489.0000,0.401474
488.5000,0.398945
488.0000,0.396486
487.5000,0.39408
487.0000,0.391737
486.5000,0.38944
486.0000,0.387238
485.5000,0.38508
485.0000,0.382978
484.5000,0.380931
484.0000,0.378955
483.5000,0.377028
483.0000,0.375176
482.5000,0.373362
482.0000,0.371603
481.5000,0.369875
481.0000,0.368236
480.5000,0.366642
480.0000,0.365105
479.5000,0.36358
479.0000,0.36212
478.5000,0.360696
478.0000,0.359324
477.5000,0.357993
477.0000,0.356721
476.5000,0.355463
476.0000,0.354273
475.5000,0.353117
475.0000,0.351984
474.5000,0.350905
474.0000,0.349844
473.5000,0.348829
473.0000,0.347856
472.5000,0.346901
472.0000,0.345959
471.5000,0.345081
471.0000,0.344227
470.5000,0.343415
470.0000,0.342592
469.5000,0.34182
469.0000,0.341085
468.5000,0.340396
468.0000,0.3397
467.5000,0.339044
467.0000,0.338403
466.5000,0.337792
466.0000,0.337188
465.5000,0.336635
465.0000,0.336093
464.5000,0.335572
464.0000,0.335048
463.5000,0.334577
463.0000,0.334111
462.5000,0.333677
462.0000,0.33324
461.5000,0.332837
461.0000,0.332442
460.5000,0.332077
460.0000,0.331704
459.5000,0.331386
459.0000,0.331062
458.5000,0.330752
458.0000,0.330453
457.5000,0.330183
457.0000,0.329922
456.5000,0.329675
456.0000,0.32944
455.5000,0.329199
455.0000,0.328982
454.5000,0.328783
454.0000,0.328609
453.5000,0.32844
453.0000,0.328275
452.5000,0.328113
452.0000,0.327974
451.5000,0.32784
451.0000,0.327711
450.5000,0.327618
450.0000,0.327222
449.5000,0.327108
449.0000,0.327034
448.5000,0.326933
448.0000,0.32685
447.5000,0.326767
447.0000,0.32671
446.5000,0.326655
446.0000,0.326627
445.5000,0.326609
445.0000,0.326589
444.5000,0.326577
444.0000,0.326565
443.5000,0.326559
443.0000,0.326559
442.5000,0.326564
442.0000,0.326589
441.5000,0.326613
441.0000,0.326651
440.5000,0.326695
440.0000,0.326746
439.5000,0.326815
439.0000,0.326879
438.5000,0.326957
438.0000,0.327034
437.5000,0.327115
437.0000,0.327194
436.5000,0.327271
436.0000,0.32737
435.5000,0.327477
435.0000,0.327602
434.5000,0.327701
434.0000,0.327825
433.5000,0.327939
433.0000,0.32806
432.5000,0.32821
432.0000,0.328351
431.5000,0.328509
431.0000,0.328667
430.5000,0.328813
430.0000,0.328946
429.5000,0.329087
429.0000,0.329227
428.5000,0.329385
428.0000,0.329548
427.5000,0.329706
427.0000,0.329878
426.5000,0.330046
426.0000,0.330221
425.5000,0.330428
425.0000,0.330601
424.5000,0.330806
424.0000,0.330988
423.5000,0.331198
423.0000,0.33141
422.5000,0.331607
422.0000,0.331821
421.5000,0.332049
421.0000,0.332279
420.5000,0.332526
420.0000,0.332763
419.5000,0.333015
419.0000,0.33325
418.5000,0.33352
418.0000,0.333768
417.5000,0.334034
417.0000,0.334321
416.5000,0.334584
416.0000,0.334843
415.5000,0.335101
415.0000,0.335359
414.5000,0.33561
414.0000,0.335904
413.5000,0.336171
413.0000,0.33646
412.5000,0.33674
412.0000,0.337028
411.5000,0.337323
411.0000,0.337611
410.5000,0.337927
410.0000,0.338344
409.5000,0.338637
409.0000,0.338966
408.5000,0.339283
408.0000,0.339622
407.5000,0.339954
407.0000,0.340294
406.5000,0.340648
406.0000,0.340988
405.5000,0.34129
405.0000,0.341603
404.5000,0.341942
404.0000,0.342287
403.5000,0.342643
403.0000,0.343022
402.5000,0.343393
402.0000,0.343718
401.5000,0.344063
401.0000,0.344389
400.5000,0.344737
400.0000,0.345122
399.5000,0.345475
399.0000,0.345826
398.5000,0.346205
398.0000,0.346588
397.5000,0.346981
397.0000,0.347364
396.5000,0.34775
396.0000,0.348159
395.5000,0.34855
395.0000,0.348916
394.5000,0.349306
394.0000,0.349731
393.5000,0.350172
393.0000,0.350565
392.5000,0.350923
392.0000,0.351349
391.5000,0.35175
391.0000,0.352152
390.5000,0.352521
390.0000,0.352912
389.5000,0.35333
389.0000,0.353731
388.5000,0.354121
388.0000,0.354503
387.5000,0.354901
387.0000,0.355279
386.5000,0.355647
386.0000,0.356052
385.5000,0.356474
385.0000,0.356907
384.5000,0.357322
384.0000,0.357714
383.5000,0.358118
383.0000,0.358558
382.5000,0.358947
382.0000,0.359349
381.5000,0.359709
381.0000,0.360137
380.5000,0.360498
380.0000,0.360876
379.5000,0.361253
379.0000,0.361609
378.5000,0.362036
378.0000,0.362396
377.5000,0.362727
377.0000,0.363134
376.5000,0.363561
376.0000,0.363929
375.5000,0.364293
375.0000,0.364664
374.5000,0.365026
374.0000,0.365376
373.5000,0.365717
373.0000,0.366092
372.5000,0.366445
372.0000,0.366804
371.5000,0.367175
371.0000,0.367503
370.5000,0.367854
370.0000,0.36812
369.5000,0.368355
369.0000,0.36858
368.5000,0.368955
368.0000,0.369313
367.5000,0.369604
367.0000,0.369925
366.5000,0.370247
366.0000,0.370535
365.5000,0.370832
365.0000,0.371059
364.5000,0.371343
364.0000,0.371558
363.5000,0.371846
363.0000,0.372026
362.5000,0.372303
362.0000,0.372472
361.5000,0.372712
361.0000,0.372922
360.5000,0.373114
360.0000,0.373307
359.5000,0.373503
359.0000,0.373683
358.5000,0.373844
358.0000,0.374032
357.5000,0.374214
357.0000,0.374395
356.5000,0.374616
356.0000,0.374768
355.5000,0.374938
355.0000,0.375155
354.5000,0.375284
354.0000,0.375486
353.5000,0.375651
353.0000,0.375881
352.5000,0.37607
352.0000,0.376252
351.5000,0.376476
351.0000,0.376661
350.5000,0.376826
350.0000,0.376994
349.5000,0.377237
349.0000,0.37746
348.5000,0.377714
348.0000,0.377992
347.5000,0.378219
347.0000,0.378561
346.5000,0.378854
346.0000,0.379193
345.5000,0.379539
345.0000,0.379878
344.5000,0.380224
344.0000,0.380618
343.5000,0.381009
343.0000,0.381403
342.5000,0.38186
342.0000,0.382298
341.5000,0.38277
341.0000,0.383258
340.5000,0.383721
340.0000,0.384945
339.5000,0.385467
339.0000,0.385967
338.5000,0.38652
338.0000,0.387012
337.5000,0.387616
337.0000,0.388169
336.5000,0.388692
336.0000,0.389278
335.5000,0.389979
335.0000,0.390571
334.5000,0.391246
334.0000,0.391906
333.5000,0.392587
333.0000,0.393332
332.5000,0.394044
332.0000,0.394722
331.5000,0.395465
331.0000,0.396143
330.5000,0.396926
330.0000,0.397621
329.5000,0.398493
329.0000,0.399254
328.5000,0.400014
328.0000,0.400847
327.5000,0.401676
327.0000,0.402458
326.5000,0.403324
326.0000,0.404187
325.5000,0.404986
325.0000,0.405876
324.5000,0.406726
324.0000,0.407611
323.5000,0.40851
323.0000,0.409474
322.5000,0.410383
322.0000,0.41134
321.5000,0.412291
321.0000,0.413293
320.5000,0.414228
320.0000,0.415179
319.5000,0.41612
319.0000,0.417161
318.5000,0.418179
318.0000,0.419165
317.5000,0.420174
317.0000,0.421159
316.5000,0.422205
316.0000,0.423183
315.5000,0.424189
315.0000,0.425237
314.5000,0.426327
314.0000,0.427428
313.5000,0.428496
313.0000,0.429505
312.5000,0.430638
312.0000,0.431757
311.5000,0.432838
311.0000,0.433965
310.5000,0.435034
310.0000,0.436125
309.5000,0.437226
309.0000,0.438281
308.5000,0.439386
308.0000,0.440509
307.5000,0.441645
307.0000,0.442681
306.5000,0.443797
306.0000,0.444852
305.5000,0.445957
305.0000,0.447036
304.5000,0.448218
304.0000,0.44933
303.5000,0.450473
303.0000,0.451592
302.5000,0.452715
302.0000,0.453867
301.5000,0.455031
301.0000,0.456184
300.5000,0.457371
300.0000,0.458655
299.5000,0.459899
299.0000,0.461115
298.5000,0.462288
298.0000,0.463499
297.5000,0.464683
297.0000,0.465942
296.5000,0.467173
296.0000,0.468351
295.5000,0.469596
295.0000,0.470809
294.5000,0.4721
294.0000,0.473351
293.5000,0.474594
293.0000,0.475899
292.5000,0.477164
292.0000,0.478409
291.5000,0.479668
291.0000,0.480993
290.5000,0.482308
290.0000,0.48366
289.5000,0.484976
289.0000,0.486324
288.5000,0.487648
288.0000,0.489065
287.5000,0.49045
287.0000,0.4918
286.5000,0.49319
286.0000,0.494573
285.5000,0.495993
285.0000,0.497444
284.5000,0.498855
284.0000,0.500243
283.5000,0.501646
283.0000,0.503089
282.5000,0.504551
282.0000,0.506016
281.5000,0.507506
281.0000,0.508994
280.5000,0.510457
280.0000,0.511926
279.5000,0.513342
279.0000,0.514848
278.5000,0.516305
278.0000,0.517806
277.5000,0.519257
277.0000,0.520686
276.5000,0.52216
276.0000,0.523633
275.5000,0.525072
275.0000,0.526489
274.5000,0.527882
274.0000,0.529258
273.5000,0.530652
273.0000,0.532006
272.5000,0.533327
272.0000,0.534571
271.5000,0.535808
271.0000,0.537045
270.5000,0.538252
270.0000,0.539466
269.5000,0.540632
269.0000,0.541713
268.5000,0.542761
268.0000,0.543797
267.5000,0.544776
267.0000,0.545743
266.5000,0.546672
266.0000,0.547548
265.5000,0.548383
265.0000,0.549196
264.5000,0.549961
264.0000,0.550698
263.5000,0.551437
263.0000,0.552087
262.5000,0.552708
262.0000,0.553264
261.5000,0.55379
261.0000,0.554301
260.5000,0.554771
260.0000,0.555193
259.5000,0.555599
259.0000,0.555979
258.5000,0.556342
258.0000,0.556676
257.5000,0.556983
257.0000,0.557251
256.5000,0.557495
256.0000,0.557725
255.5000,0.557904
255.0000,0.558061
254.5000,0.558182
254.0000,0.558234
253.5000,0.558281
253.0000,0.558342
252.5000,0.558416
252.0000,0.558435
251.5000,0.558454
251.0000,0.558429
250.5000,0.558388
250.0000,0.558318
249.5000,0.558283
249.0000,0.558169
248.5000,0.558087
248.0000,0.557984
247.5000,0.557896
247.0000,0.557777
246.5000,0.557635
246.0000,0.557448
245.5000,0.557348
245.0000,0.557193
244.5000,0.557011
244.0000,0.55686
243.5000,0.556681
243.0000,0.556478
242.5000,0.556275
242.0000,0.556075
241.5000,0.555817
241.0000,0.555561
240.5000,0.555317
240.0000,0.555082
239.5000,0.554824
239.0000,0.554595
238.5000,0.554375
238.0000,0.554141
237.5000,0.553893
237.0000,0.553625
236.5000,0.553355
236.0000,0.553102
235.5000,0.552838
235.0000,0.552576
234.5000,0.552307
234.0000,0.552046
233.5000,0.551781
233.0000,0.551472
232.5000,0.551175
232.0000,0.550906
231.5000,0.550596
231.0000,0.550288
230.5000,0.549975
230.0000,0.549702
229.5000,0.549407
229.0000,0.549086
228.5000,0.548738
228.0000,0.548412
227.5000,0.548064
227.0000,0.547722
226.5000,0.547354
226.0000,0.547002
225.5000,0.546625
225.0000,0.546242
224.5000,0.54582
224.0000,0.545369
223.5000,0.544972
223.0000,0.544493
222.5000,0.544029
222.0000,0.543551
221.5000,0.543046
221.0000,0.542544
220.5000,0.541977
220.0000,0.541395
219.5000,0.540793
219.0000,0.540163
218.5000,0.539523
218.0000,0.53884
217.5000,0.538105
217.0000,0.53741
216.5000,0.536684
216.0000,0.535866
215.5000,0.535084
215.0000,0.534269
214.5000,0.533427
214.0000,0.532565
213.5000,0.531632
213.0000,0.530733
212.5000,0.529834
212.0000,0.5289
211.5000,0.527956
211.0000,0.52695
210.5000,0.525992
210.0000,0.524942
209.5000,0.523934
209.0000,0.522892
208.5000,0.521889
208.0000,0.520862
207.5000,0.519774
207.0000,0.518687
206.5000,0.517673
206.0000,0.516649
205.5000,0.515628
205.0000,0.514542
204.5000,0.513553
204.0000,0.51258
203.5000,0.511693
203.0000,0.510839
202.5000,0.50992
202.0000,0.508935
201.5000,0.508242
201.0000,0.507645
200.5000,0.507011
200.0000,0.506266

##### Extended Information
[Comments]
Sample name,454 Au Runpeng POST centrifuga 1000RCF sedim_10-01-25
Comment,454 Au Runpeng POST centrifuga 1000RCF sedim_10-01-25
User
Division
Company,Uni PD

[Detailed Information]
Creation date,10/01/2025 11:52

Data array type,Linear data array
Horizontal axis,Wavelength [nm]
Vertical axis,Abs
Start,1200 nm
End,200 nm
Data interval,0.5 nm
Data points,2001    

[Measurement Information]
Instrument name,Jasco V-770
Model name,V-770
Serial No.,A035961801

Accessory,USE-753
Accessory S/N,A035961801
  Cell,
  Ref. beam,

Measurement date,10/01/2025 11:52

Parameter file,D:\DATI UTENTI\REFFATTO C\Reffatto 200-1200nm.uvsp
Photometric mode,Abs
Measurement range,1200 - 200 nm
Data interval,0.5 nm
UV/Vis bandwidth,1.0 nm
NIR bandwidth,8.0 nm
UV/Vis response,0.96 sec
NIR response,0.96 sec
Scan speed,1000 nm/min
Change source at,340 nm
Change grating at,850 nm
Light source,D2/WI
Filter exchange,Step
Correction,Baseline

