TITLE,2_20-02
DATA TYPE,ULTRAVIOLET SPECTRUM
ORIGIN,JASCO
OWNER,
DATE,24/02/20
TIME,18:11:07
SPECTROMETER/DATA SYSTEM,
LOCALE,1040
RESOLUTION,
DELTAX,-0.5
XUNITS,NANOMETERS
YUNITS,ABSORBANCE
FIRSTX, 1200.0000
LASTX,  200.0000
NPOINTS,    2001
FIRSTY,     0.00134
MAXY,     0.08012
MINY,     0.00134
XYDATA
1200.0000,0.00134357
1199.5000,0.00135204
1199.0000,0.00135502
1198.5000,0.00134654
1198.0000,0.00136977
1197.5000,0.00134916
1197.0000,0.00138312
1196.5000,0.0013743
1196.0000,0.00137743
1195.5000,0.00135928
1195.0000,0.00139586
1194.5000,0.00140303
1194.0000,0.00142307
1193.5000,0.001427
1193.0000,0.00144949
1192.5000,0.00143693
1192.0000,0.00142097
1191.5000,0.00139563
1191.0000,0.00138033
1190.5000,0.00135667
1190.0000,0.00138016
1189.5000,0.00138079
1189.0000,0.00143024
1188.5000,0.00143175
1188.0000,0.00143482
1187.5000,0.00143764
1187.0000,0.001465
1186.5000,0.00145839
1186.0000,0.00143651
1185.5000,0.00141818
1185.0000,0.00144911
1184.5000,0.00144671
1184.0000,0.00144222
1183.5000,0.0014395
1183.0000,0.0014536
1182.5000,0.00145604
1182.0000,0.00145576
1181.5000,0.00146592
1181.0000,0.00147742
1180.5000,0.00148414
1180.0000,0.00149348
1179.5000,0.00151022
1179.0000,0.00151194
1178.5000,0.00150664
1178.0000,0.00153962
1177.5000,0.00154294
1177.0000,0.0015566
1176.5000,0.00157202
1176.0000,0.00162431
1175.5000,0.00165747
1175.0000,0.00169091
1174.5000,0.00171851
1174.0000,0.00175406
1173.5000,0.00176956
1173.0000,0.0017673
1172.5000,0.00177041
1172.0000,0.00177158
1171.5000,0.00179148
1171.0000,0.00180164
1170.5000,0.00182704
1170.0000,0.00185831
1169.5000,0.00187546
1169.0000,0.00185891
1168.5000,0.00186648
1168.0000,0.00189798
1167.5000,0.0019043
1167.0000,0.00193431
1166.5000,0.00190904
1166.0000,0.00190032
1165.5000,0.00191203
1165.0000,0.00189538
1164.5000,0.00188981
1164.0000,0.00189772
1163.5000,0.00190554
1163.0000,0.00190936
1162.5000,0.00191126
1162.0000,0.00188712
1161.5000,0.00186298
1161.0000,0.00187942
1160.5000,0.00190034
1160.0000,0.00187949
1159.5000,0.00187833
1159.0000,0.00187095
1158.5000,0.00186443
1158.0000,0.0018466
1157.5000,0.00184338
1157.0000,0.00182848
1156.5000,0.00182165
1156.0000,0.00181291
1155.5000,0.00179181
1155.0000,0.00177826
1154.5000,0.00175452
1154.0000,0.00174413
1153.5000,0.00171648
1153.0000,0.00173033
1152.5000,0.00172728
1152.0000,0.00170991
1151.5000,0.0017058
1151.0000,0.00168343
1150.5000,0.00170122
1150.0000,0.00173522
1149.5000,0.00172474
1149.0000,0.00173637
1148.5000,0.00173742
1148.0000,0.00174216
1147.5000,0.00174237
1147.0000,0.00172165
1146.5000,0.00169824
1146.0000,0.00169483
1145.5000,0.00171593
1145.0000,0.00168959
1144.5000,0.00167199
1144.0000,0.00166473
1143.5000,0.00165258
1143.0000,0.00165414
1142.5000,0.00164849
1142.0000,0.00164699
1141.5000,0.00162648
1141.0000,0.00165271
1140.5000,0.0016404
1140.0000,0.00164888
1139.5000,0.00165378
1139.0000,0.00165661
1138.5000,0.00166914
1138.0000,0.00166274
1137.5000,0.00168687
1137.0000,0.00166048
1136.5000,0.00166581
1136.0000,0.00166679
1135.5000,0.0016709
1135.0000,0.00167444
1134.5000,0.00166421
1134.0000,0.00163252
1133.5000,0.0016309
1133.0000,0.00163023
1132.5000,0.00162939
1132.0000,0.00161849
1131.5000,0.00160712
1131.0000,0.00161266
1130.5000,0.00162081
1130.0000,0.00161389
1129.5000,0.00161104
1129.0000,0.00160114
1128.5000,0.00160305
1128.0000,0.00159922
1127.5000,0.00157848
1127.0000,0.00155434
1126.5000,0.00154478
1126.0000,0.00155381
1125.5000,0.00154595
1125.0000,0.00152248
1124.5000,0.00152754
1124.0000,0.00149317
1123.5000,0.00149253
1123.0000,0.00148096
1122.5000,0.00146935
1122.0000,0.00147848
1121.5000,0.00147009
1121.0000,0.00147065
1120.5000,0.00146776
1120.0000,0.00147324
1119.5000,0.00146859
1119.0000,0.00145265
1118.5000,0.00146673
1118.0000,0.00147252
1117.5000,0.00147725
1117.0000,0.00146864
1116.5000,0.00145118
1116.0000,0.00144352
1115.5000,0.00145634
1115.0000,0.00145214
1114.5000,0.0014508
1114.0000,0.00146054
1113.5000,0.00146444
1113.0000,0.00147248
1112.5000,0.00146592
1112.0000,0.00145936
1111.5000,0.00148738
1111.0000,0.00149785
1110.5000,0.00152724
1110.0000,0.00151326
1109.5000,0.00152437
1109.0000,0.00152034
1108.5000,0.00153113
1108.0000,0.0015623
1107.5000,0.00156341
1107.0000,0.00157863
1106.5000,0.00159274
1106.0000,0.00161092
1105.5000,0.00162135
1105.0000,0.00162852
1104.5000,0.00163361
1104.0000,0.0016303
1103.5000,0.00162853
1103.0000,0.0016483
1102.5000,0.0016369
1102.0000,0.00164471
1101.5000,0.00164473
1101.0000,0.00165782
1100.5000,0.00166854
1100.0000,0.00165749
1099.5000,0.00165508
1099.0000,0.00167205
1098.5000,0.00167036
1098.0000,0.00166548
1097.5000,0.00165016
1097.0000,0.00164851
1096.5000,0.00164617
1096.0000,0.00164595
1095.5000,0.00165545
1095.0000,0.00165579
1094.5000,0.0016306
1094.0000,0.00165783
1093.5000,0.00164024
1093.0000,0.00165246
1092.5000,0.00163042
1092.0000,0.00163539
1091.5000,0.00162384
1091.0000,0.00161759
1090.5000,0.00160071
1090.0000,0.00158148
1089.5000,0.00156564
1089.0000,0.0015707
1088.5000,0.00158022
1088.0000,0.00158178
1087.5000,0.00158162
1087.0000,0.00157113
1086.5000,0.00158039
1086.0000,0.00156987
1085.5000,0.00159478
1085.0000,0.00157002
1084.5000,0.00157636
1084.0000,0.00158798
1083.5000,0.00158588
1083.0000,0.00156637
1082.5000,0.00157212
1082.0000,0.00156994
1081.5000,0.00156485
1081.0000,0.00157423
1080.5000,0.00158563
1080.0000,0.0015965
1079.5000,0.00157646
1079.0000,0.00158363
1078.5000,0.0015806
1078.0000,0.00155956
1077.5000,0.0015857
1077.0000,0.00157153
1076.5000,0.00158483
1076.0000,0.00158517
1075.5000,0.00158821
1075.0000,0.00157491
1074.5000,0.00157707
1074.0000,0.00158777
1073.5000,0.00158011
1073.0000,0.00157675
1072.5000,0.00156096
1072.0000,0.0015518
1071.5000,0.00154582
1071.0000,0.00155963
1070.5000,0.00154959
1070.0000,0.00156373
1069.5000,0.00155314
1069.0000,0.00158638
1068.5000,0.0015858
1068.0000,0.00160482
1067.5000,0.00159803
1067.0000,0.00161159
1066.5000,0.00160801
1066.0000,0.00161535
1065.5000,0.00161678
1065.0000,0.00161329
1064.5000,0.0015853
1064.0000,0.00159276
1063.5000,0.0015873
1063.0000,0.00160436
1062.5000,0.00159597
1062.0000,0.00161301
1061.5000,0.00157941
1061.0000,0.00161813
1060.5000,0.00161251
1060.0000,0.00163567
1059.5000,0.00161968
1059.0000,0.001654
1058.5000,0.00163449
1058.0000,0.00165103
1057.5000,0.00165615
1057.0000,0.0016713
1056.5000,0.00167201
1056.0000,0.00168811
1055.5000,0.00166748
1055.0000,0.00166265
1054.5000,0.00163758
1054.0000,0.00163914
1053.5000,0.00158425
1053.0000,0.00160077
1052.5000,0.00158677
1052.0000,0.00160178
1051.5000,0.00158815
1051.0000,0.00159959
1050.5000,0.00159009
1050.0000,0.00158585
1049.5000,0.00157589
1049.0000,0.00157365
1048.5000,0.00155957
1048.0000,0.00155563
1047.5000,0.00153648
1047.0000,0.00152466
1046.5000,0.00151828
1046.0000,0.00150223
1045.5000,0.001516
1045.0000,0.00150234
1044.5000,0.00147458
1044.0000,0.00146339
1043.5000,0.00147178
1043.0000,0.00144455
1042.5000,0.00146211
1042.0000,0.00144877
1041.5000,0.00141901
1041.0000,0.00142964
1040.5000,0.00140322
1040.0000,0.00141967
1039.5000,0.00142321
1039.0000,0.00142719
1038.5000,0.00144259
1038.0000,0.00143704
1037.5000,0.00147308
1037.0000,0.00144294
1036.5000,0.00143612
1036.0000,0.0014057
1035.5000,0.00140516
1035.0000,0.00138646
1034.5000,0.0013833
1034.0000,0.0013916
1033.5000,0.00140795
1033.0000,0.00141319
1032.5000,0.00143948
1032.0000,0.00145295
1031.5000,0.00146857
1031.0000,0.00145876
1030.5000,0.00147136
1030.0000,0.00150567
1029.5000,0.00149462
1029.0000,0.0014975
1028.5000,0.00152467
1028.0000,0.00152102
1027.5000,0.00151319
1027.0000,0.00153974
1026.5000,0.00152439
1026.0000,0.00153498
1025.5000,0.00156143
1025.0000,0.0015557
1024.5000,0.00156401
1024.0000,0.00154592
1023.5000,0.00156085
1023.0000,0.00156251
1022.5000,0.00156192
1022.0000,0.00154026
1021.5000,0.00151062
1021.0000,0.00154201
1020.5000,0.00153027
1020.0000,0.00156793
1019.5000,0.00155306
1019.0000,0.00158722
1018.5000,0.00157281
1018.0000,0.00161733
1017.5000,0.00157277
1017.0000,0.00162911
1016.5000,0.00158711
1016.0000,0.00162672
1015.5000,0.00160208
1015.0000,0.0016412
1014.5000,0.00160863
1014.0000,0.00161187
1013.5000,0.00160903
1013.0000,0.00162247
1012.5000,0.00158195
1012.0000,0.00161008
1011.5000,0.00161479
1011.0000,0.00163279
1010.5000,0.00161909
1010.0000,0.00165173
1009.5000,0.00164269
1009.0000,0.00167291
1008.5000,0.00165308
1008.0000,0.00168743
1007.5000,0.0016618
1007.0000,0.00173458
1006.5000,0.0017215
1006.0000,0.0018122
1005.5000,0.00182923
1005.0000,0.00183585
1004.5000,0.00184183
1004.0000,0.0018608
1003.5000,0.00185852
1003.0000,0.00185889
1002.5000,0.00187084
1002.0000,0.00183471
1001.5000,0.00186772
1001.0000,0.00187107
1000.5000,0.00190033
1000.0000,0.00190115
999.5000,0.00193194
999.0000,0.00193551
998.5000,0.00195747
998.0000,0.00197958
997.5000,0.00199857
997.0000,0.00199486
996.5000,0.00201839
996.0000,0.00201893
995.5000,0.00200434
995.0000,0.00200948
994.5000,0.00203311
994.0000,0.00200003
993.5000,0.00200517
993.0000,0.00197192
992.5000,0.00196622
992.0000,0.00196818
991.5000,0.00198901
991.0000,0.00191642
990.5000,0.0019218
990.0000,0.00191563
989.5000,0.00191598
989.0000,0.00189701
988.5000,0.00190703
988.0000,0.00188137
987.5000,0.00189628
987.0000,0.00192984
986.5000,0.00195484
986.0000,0.00198443
985.5000,0.00199393
985.0000,0.00194535
984.5000,0.00194118
984.0000,0.00192442
983.5000,0.00190964
983.0000,0.00190123
982.5000,0.00189542
982.0000,0.00188677
981.5000,0.00187125
981.0000,0.00188136
980.5000,0.00188713
980.0000,0.0018908
979.5000,0.00189788
979.0000,0.0019075
978.5000,0.0018685
978.0000,0.00191881
977.5000,0.00191345
977.0000,0.00194728
976.5000,0.00198453
976.0000,0.00199672
975.5000,0.00198761
975.0000,0.00205118
974.5000,0.00201361
974.0000,0.00199098
973.5000,0.00196268
973.0000,0.00199633
972.5000,0.0019759
972.0000,0.0020132
971.5000,0.00202214
971.0000,0.00202463
970.5000,0.00197508
970.0000,0.00197152
969.5000,0.00194334
969.0000,0.00202233
968.5000,0.00201192
968.0000,0.0020654
967.5000,0.00202711
967.0000,0.00205311
966.5000,0.00205237
966.0000,0.00204829
965.5000,0.0020292
965.0000,0.00205428
964.5000,0.00201842
964.0000,0.00203986
963.5000,0.00203893
963.0000,0.00206721
962.5000,0.00206618
962.0000,0.00206137
961.5000,0.00204513
961.0000,0.00207707
960.5000,0.00205359
960.0000,0.00206622
959.5000,0.00203505
959.0000,0.00205306
958.5000,0.00207526
958.0000,0.00207746
957.5000,0.00207702
957.0000,0.00212182
956.5000,0.0021077
956.0000,0.002119
955.5000,0.0020542
955.0000,0.00206139
954.5000,0.00203748
954.0000,0.00206724
953.5000,0.00202225
953.0000,0.00199834
952.5000,0.00199816
952.0000,0.00199124
951.5000,0.00199228
951.0000,0.00202631
950.5000,0.00202095
950.0000,0.0020518
949.5000,0.00205745
949.0000,0.00208454
948.5000,0.00209646
948.0000,0.00209862
947.5000,0.00205513
947.0000,0.00204995
946.5000,0.00209635
946.0000,0.00208268
945.5000,0.00207119
945.0000,0.00205914
944.5000,0.00201635
944.0000,0.00204236
943.5000,0.00204543
943.0000,0.00201284
942.5000,0.00201091
942.0000,0.00204008
941.5000,0.00205179
941.0000,0.00200581
940.5000,0.00202248
940.0000,0.00200946
939.5000,0.002059
939.0000,0.00205855
938.5000,0.00209147
938.0000,0.00206804
937.5000,0.00213879
937.0000,0.00212846
936.5000,0.00212209
936.0000,0.00207181
935.5000,0.00208795
935.0000,0.00206427
934.5000,0.00204881
934.0000,0.00201444
933.5000,0.0020089
933.0000,0.00200677
932.5000,0.00203208
932.0000,0.00204027
931.5000,0.00205366
931.0000,0.00203655
930.5000,0.00200005
930.0000,0.00203054
929.5000,0.0020023
929.0000,0.00202075
928.5000,0.00202524
928.0000,0.00201373
927.5000,0.00200278
927.0000,0.00200532
926.5000,0.00196672
926.0000,0.00200311
925.5000,0.00196637
925.0000,0.00199319
924.5000,0.00197178
924.0000,0.00203158
923.5000,0.00199029
923.0000,0.00200507
922.5000,0.00198823
922.0000,0.00204307
921.5000,0.00196853
921.0000,0.00199981
920.5000,0.00198148
920.0000,0.00208067
919.5000,0.00204008
919.0000,0.00206255
918.5000,0.00202875
918.0000,0.00209257
917.5000,0.0020898
917.0000,0.00210824
916.5000,0.00203611
916.0000,0.00208173
915.5000,0.00201851
915.0000,0.0020637
914.5000,0.00198733
914.0000,0.00205842
913.5000,0.0020178
913.0000,0.00201029
912.5000,0.00194924
912.0000,0.00200908
911.5000,0.00202474
911.0000,0.00210024
910.5000,0.00209583
910.0000,0.00214013
909.5000,0.00209324
909.0000,0.00214923
908.5000,0.00207981
908.0000,0.00207193
907.5000,0.00200528
907.0000,0.00207288
906.5000,0.00200149
906.0000,0.00203557
905.5000,0.00203901
905.0000,0.002124
904.5000,0.00210221
904.0000,0.00211904
903.5000,0.00209523
903.0000,0.00214852
902.5000,0.00215647
902.0000,0.00219795
901.5000,0.00216097
901.0000,0.00219911
900.5000,0.00218243
900.0000,0.0021962
899.5000,0.00227368
899.0000,0.00229915
898.5000,0.0022762
898.0000,0.00220141
897.5000,0.00230255
897.0000,0.00234486
896.5000,0.00240927
896.0000,0.00243827
895.5000,0.00237761
895.0000,0.00231306
894.5000,0.00237155
894.0000,0.00232659
893.5000,0.00247039
893.0000,0.00249604
892.5000,0.0024966
892.0000,0.00245598
891.5000,0.00259872
891.0000,0.00252384
890.5000,0.00254706
890.0000,0.00253997
889.5000,0.00256907
889.0000,0.00244558
888.5000,0.00254754
888.0000,0.00251673
887.5000,0.00257079
887.0000,0.00257826
886.5000,0.00265933
886.0000,0.00260032
885.5000,0.00263098
885.0000,0.00254158
884.5000,0.0025836
884.0000,0.00256392
883.5000,0.00256654
883.0000,0.00257692
882.5000,0.00269029
882.0000,0.00278369
881.5000,0.00277441
881.0000,0.00274695
880.5000,0.00276043
880.0000,0.0027031
879.5000,0.00267069
879.0000,0.00275483
878.5000,0.00268988
878.0000,0.00265255
877.5000,0.00252342
877.0000,0.00251888
876.5000,0.00259306
876.0000,0.00260865
875.5000,0.00251317
875.0000,0.00258057
874.5000,0.0025462
874.0000,0.002505
873.5000,0.00249532
873.0000,0.00258036
872.5000,0.00249489
872.0000,0.00255787
871.5000,0.00247388
871.0000,0.00249129
870.5000,0.00227705
870.0000,0.00231805
869.5000,0.00219867
869.0000,0.0022889
868.5000,0.00221082
868.0000,0.00224195
867.5000,0.00214907
867.0000,0.00219928
866.5000,0.00215949
866.0000,0.00222723
865.5000,0.00208856
865.0000,0.00213922
864.5000,0.00204222
864.0000,0.00212312
863.5000,0.00213379
863.0000,0.00218234
862.5000,0.00210373
862.0000,0.00227122
861.5000,0.00224395
861.0000,0.00237803
860.5000,0.0022814
860.0000,0.00246903
859.5000,0.00239079
859.0000,0.00241871
858.5000,0.00238063
858.0000,0.00250492
857.5000,0.0024111
857.0000,0.00245072
856.5000,0.00231406
856.0000,0.00231302
855.5000,0.00227217
855.0000,0.00233075
854.5000,0.00246598
854.0000,0.00248213
853.5000,0.00250646
853.0000,0.00256155
852.5000,0.00261405
852.0000,0.00257937
851.5000,0.0025122
851.0000,0.0024825
850.5000,0.00248558
850.0000,0.00358259
849.5000,0.00352094
849.0000,0.00351731
848.5000,0.00353353
848.0000,0.00354677
847.5000,0.00352545
847.0000,0.00347591
846.5000,0.00349255
846.0000,0.00347425
845.5000,0.00349831
845.0000,0.00348055
844.5000,0.00348916
844.0000,0.0034464
843.5000,0.00348471
843.0000,0.00350876
842.5000,0.00349088
842.0000,0.00349284
841.5000,0.00355176
841.0000,0.00364632
840.5000,0.00361722
840.0000,0.00363397
839.5000,0.00358687
839.0000,0.00360124
838.5000,0.00355426
838.0000,0.00354434
837.5000,0.00354606
837.0000,0.00358526
836.5000,0.00359756
836.0000,0.00358063
835.5000,0.00359459
835.0000,0.00355978
834.5000,0.00357932
834.0000,0.00359607
833.5000,0.00362696
833.0000,0.00366877
832.5000,0.00368131
832.0000,0.00364211
831.5000,0.00367697
831.0000,0.00367287
830.5000,0.00365179
830.0000,0.00364246
829.5000,0.00361734
829.0000,0.00359886
828.5000,0.00359049
828.0000,0.00358859
827.5000,0.00362773
827.0000,0.00359393
826.5000,0.00361175
826.0000,0.00366622
825.5000,0.00369117
825.0000,0.00366866
824.5000,0.00367287
824.0000,0.00368333
823.5000,0.00370459
823.0000,0.0037031
822.5000,0.00372645
822.0000,0.00371653
821.5000,0.00372579
821.0000,0.00374183
820.5000,0.00375579
820.0000,0.00376737
819.5000,0.00375781
819.0000,0.00376696
818.5000,0.00378068
818.0000,0.00374646
817.5000,0.00374991
817.0000,0.00371481
816.5000,0.00372484
816.0000,0.00374955
815.5000,0.00375003
815.0000,0.00382879
814.5000,0.00384833
814.0000,0.00384292
813.5000,0.00383473
813.0000,0.00384138
812.5000,0.00381821
812.0000,0.00385243
811.5000,0.00378917
811.0000,0.00379903
810.5000,0.00384358
810.0000,0.00380925
809.5000,0.00379517
809.0000,0.00377272
808.5000,0.00379137
808.0000,0.00382594
807.5000,0.00384619
807.0000,0.00383413
806.5000,0.00384744
806.0000,0.00387007
805.5000,0.00381352
805.0000,0.0038039
804.5000,0.00380402
804.0000,0.00384215
803.5000,0.00384738
803.0000,0.00386662
802.5000,0.00385866
802.0000,0.0038649
801.5000,0.0038624
801.0000,0.00389846
800.5000,0.00389293
800.0000,0.00387743
799.5000,0.00384857
799.0000,0.00381744
798.5000,0.00381833
798.0000,0.00383479
797.5000,0.0038586
797.0000,0.00389388
796.5000,0.00392756
796.0000,0.00392447
795.5000,0.00395292
795.0000,0.00395447
794.5000,0.00391467
794.0000,0.00394354
793.5000,0.00396552
793.0000,0.00397526
792.5000,0.00396011
792.0000,0.00397668
791.5000,0.00397846
791.0000,0.00400775
790.5000,0.00400935
790.0000,0.00402349
789.5000,0.00409221
789.0000,0.00410177
788.5000,0.00409066
788.0000,0.0040947
787.5000,0.0041086
787.0000,0.00414228
786.5000,0.0041519
786.0000,0.00416728
785.5000,0.00419176
785.0000,0.00420435
784.5000,0.00420476
784.0000,0.00422092
783.5000,0.00424224
783.0000,0.00425893
782.5000,0.00426778
782.0000,0.00427681
781.5000,0.00430015
781.0000,0.0043074
780.5000,0.00433377
780.0000,0.00435563
779.5000,0.00436971
779.0000,0.0044019
778.5000,0.00440766
778.0000,0.00441675
777.5000,0.00440618
777.0000,0.00443094
776.5000,0.00442904
776.0000,0.00443243
775.5000,0.00442429
775.0000,0.00442993
774.5000,0.00443985
774.0000,0.00443486
773.5000,0.00442732
773.0000,0.00445827
772.5000,0.00447745
772.0000,0.00448404
771.5000,0.00448565
771.0000,0.00446563
770.5000,0.00448493
770.0000,0.00446878
769.5000,0.00448743
769.0000,0.00447816
768.5000,0.0044945
768.0000,0.00452562
767.5000,0.00456156
767.0000,0.00459048
766.5000,0.0046083
766.0000,0.00463141
765.5000,0.00464786
765.0000,0.00463105
764.5000,0.00465273
764.0000,0.00466093
763.5000,0.00466894
763.0000,0.00466437
762.5000,0.00467037
762.0000,0.00468106
761.5000,0.00473772
761.0000,0.00476059
760.5000,0.00477995
760.0000,0.00479807
759.5000,0.00478637
759.0000,0.00479914
758.5000,0.00480478
758.0000,0.00482337
757.5000,0.0048384
757.0000,0.00481714
756.5000,0.00486008
756.0000,0.00488437
755.5000,0.0049171
755.0000,0.00493783
754.5000,0.00494805
754.0000,0.00497792
753.5000,0.00495909
753.0000,0.00498446
752.5000,0.00500453
752.0000,0.0050154
751.5000,0.00500334
751.0000,0.00499241
750.5000,0.00499598
750.0000,0.00500697
749.5000,0.00499277
749.0000,0.00501647
748.5000,0.00499206
748.0000,0.00501023
747.5000,0.005041
747.0000,0.00505312
746.5000,0.00508175
746.0000,0.00508917
745.5000,0.00506458
745.0000,0.00506636
744.5000,0.00508941
744.0000,0.00510028
743.5000,0.00512813
743.0000,0.0051456
742.5000,0.00516627
742.0000,0.00518052
741.5000,0.00520392
741.0000,0.00523392
740.5000,0.00522893
740.0000,0.00525156
739.5000,0.0052597
739.0000,0.00526736
738.5000,0.00530341
738.0000,0.00532699
737.5000,0.00535271
737.0000,0.00537825
736.5000,0.00536643
736.0000,0.00536887
735.5000,0.00537754
735.0000,0.00540296
734.5000,0.00544412
734.0000,0.00542523
733.5000,0.0054585
733.0000,0.00548107
732.5000,0.00549752
732.0000,0.00551041
731.5000,0.00551819
731.0000,0.00552122
730.5000,0.00554343
730.0000,0.00556107
729.5000,0.00556642
729.0000,0.00557331
728.5000,0.00560586
728.0000,0.00562938
727.5000,0.00566686
727.0000,0.0056763
726.5000,0.00569376
726.0000,0.00570612
725.5000,0.00571485
725.0000,0.00573534
724.5000,0.0057515
724.0000,0.00574437
723.5000,0.00577704
723.0000,0.0057948
722.5000,0.00579949
722.0000,0.00582467
721.5000,0.00586055
721.0000,0.00586773
720.5000,0.00590949
720.0000,0.00592434
719.5000,0.00595255
719.0000,0.00596693
718.5000,0.00598611
718.0000,0.00599745
717.5000,0.00599959
717.0000,0.00602543
716.5000,0.00606273
716.0000,0.00607122
715.5000,0.00609077
715.0000,0.00612308
714.5000,0.00616287
714.0000,0.00617843
713.5000,0.00621526
713.0000,0.00623486
712.5000,0.0062348
712.0000,0.00625779
711.5000,0.00628042
711.0000,0.00630893
710.5000,0.00634522
710.0000,0.00636767
709.5000,0.00639333
709.0000,0.00640634
708.5000,0.00643675
708.0000,0.00647631
707.5000,0.00647815
707.0000,0.0065088
706.5000,0.00652851
706.0000,0.00656029
705.5000,0.00659029
705.0000,0.0066144
704.5000,0.00664291
704.0000,0.00668045
703.5000,0.00670278
703.0000,0.00673165
702.5000,0.00676616
702.0000,0.00680114
701.5000,0.00684747
701.0000,0.00685614
700.5000,0.00687949
700.0000,0.00691352
699.5000,0.00695789
699.0000,0.00698034
698.5000,0.00700267
698.0000,0.0070174
697.5000,0.0070313
697.0000,0.00705423
696.5000,0.00710834
696.0000,0.00711939
695.5000,0.00713946
695.0000,0.00716554
694.5000,0.00717961
694.0000,0.00720414
693.5000,0.00724988
693.0000,0.00728611
692.5000,0.00731997
692.0000,0.00734194
691.5000,0.00739249
691.0000,0.00740478
690.5000,0.00744517
690.0000,0.00746477
689.5000,0.00748645
689.0000,0.00753961
688.5000,0.00756141
688.0000,0.00760388
687.5000,0.00762799
687.0000,0.00766577
686.5000,0.0076865
686.0000,0.00771655
685.5000,0.00776152
685.0000,0.00780933
684.5000,0.00785518
684.0000,0.0078945
683.5000,0.00791013
683.0000,0.00793466
682.5000,0.00794737
682.0000,0.00800439
681.5000,0.00805357
681.0000,0.00810619
680.5000,0.00813589
680.0000,0.00817479
679.5000,0.00822017
679.0000,0.00825789
678.5000,0.00830285
678.0000,0.0083433
677.5000,0.00837918
677.0000,0.00841933
676.5000,0.00846607
676.0000,0.00850931
675.5000,0.00853812
675.0000,0.00858564
674.5000,0.00863369
674.0000,0.00868364
673.5000,0.00870692
673.0000,0.00871554
672.5000,0.00874357
672.0000,0.00878348
671.5000,0.0088209
671.0000,0.00886521
670.5000,0.00889598
670.0000,0.00894421
669.5000,0.00897034
669.0000,0.00902671
668.5000,0.00906746
668.0000,0.00910018
667.5000,0.00914438
667.0000,0.00921019
666.5000,0.00926632
666.0000,0.00931235
665.5000,0.00936224
665.0000,0.00939514
664.5000,0.00944207
664.0000,0.00948976
663.5000,0.00954435
663.0000,0.00958753
662.5000,0.00964722
662.0000,0.00969706
661.5000,0.00973697
661.0000,0.00978027
660.5000,0.0098146
660.0000,0.00986556
659.5000,0.00992591
659.0000,0.009972
658.5000,0.0100067
658.0000,0.0100629
657.5000,0.0101333
657.0000,0.0102001
656.5000,0.0102673
656.0000,0.0103094
655.5000,0.010389
655.0000,0.0104362
654.5000,0.0105024
654.0000,0.010555
653.5000,0.010635
653.0000,0.0106836
652.5000,0.0107504
652.0000,0.0108157
651.5000,0.0108937
651.0000,0.0109271
650.5000,0.0109911
650.0000,0.011052
649.5000,0.0111204
649.0000,0.0112007
648.5000,0.0112791
648.0000,0.0113329
647.5000,0.0114008
647.0000,0.0114657
646.5000,0.0115411
646.0000,0.0116027
645.5000,0.0116853
645.0000,0.0117621
644.5000,0.0118415
644.0000,0.01192
643.5000,0.0119814
643.0000,0.0120472
642.5000,0.0121384
642.0000,0.0122062
641.5000,0.0122929
641.0000,0.0123651
640.5000,0.01245
640.0000,0.0125311
639.5000,0.0126102
639.0000,0.0126835
638.5000,0.0127706
638.0000,0.0128614
637.5000,0.0129243
637.0000,0.0130055
636.5000,0.0130861
636.0000,0.013175
635.5000,0.0132592
635.0000,0.013361
634.5000,0.0134528
634.0000,0.0135478
633.5000,0.0136264
633.0000,0.0137179
632.5000,0.0137934
632.0000,0.0139028
631.5000,0.0139914
631.0000,0.0140953
630.5000,0.0141761
630.0000,0.0142753
629.5000,0.0143554
629.0000,0.0144514
628.5000,0.014552
628.0000,0.0146445
627.5000,0.0147414
627.0000,0.0148472
626.5000,0.0149477
626.0000,0.0150428
625.5000,0.0151346
625.0000,0.0152423
624.5000,0.0153545
624.0000,0.0154756
623.5000,0.0155624
623.0000,0.0156664
622.5000,0.0157701
622.0000,0.0158751
621.5000,0.0159909
621.0000,0.0161203
620.5000,0.0162381
620.0000,0.0164348
619.5000,0.016561
619.0000,0.0166936
618.5000,0.0168079
618.0000,0.0169455
617.5000,0.0170729
617.0000,0.0171929
616.5000,0.0173181
616.0000,0.0174612
615.5000,0.0176063
615.0000,0.0177618
614.5000,0.0178846
614.0000,0.0180262
613.5000,0.0181816
613.0000,0.0183273
612.5000,0.018482
612.0000,0.0186279
611.5000,0.0187674
611.0000,0.0189126
610.5000,0.0190673
610.0000,0.019211
609.5000,0.0193682
609.0000,0.0195242
608.5000,0.0196841
608.0000,0.0198259
607.5000,0.0199951
607.0000,0.0201686
606.5000,0.0203231
606.0000,0.02048
605.5000,0.0206388
605.0000,0.0207887
604.5000,0.0209378
604.0000,0.0211102
603.5000,0.0213003
603.0000,0.0214537
602.5000,0.0216288
602.0000,0.0218034
601.5000,0.0219822
601.0000,0.0221606
600.5000,0.0223453
600.0000,0.0225185
599.5000,0.0227141
599.0000,0.0228928
598.5000,0.0231062
598.0000,0.0233096
597.5000,0.0235036
597.0000,0.023701
596.5000,0.0238827
596.0000,0.0240738
595.5000,0.0242885
595.0000,0.0244857
594.5000,0.0246874
594.0000,0.0248913
593.5000,0.0250982
593.0000,0.0253027
592.5000,0.0255102
592.0000,0.0257401
591.5000,0.025953
591.0000,0.0261834
590.5000,0.0264204
590.0000,0.0266558
589.5000,0.0269043
589.0000,0.0271436
588.5000,0.0274022
588.0000,0.0276369
587.5000,0.027883
587.0000,0.0281293
586.5000,0.0283761
586.0000,0.0286225
585.5000,0.028873
585.0000,0.0291246
584.5000,0.0293899
584.0000,0.0296544
583.5000,0.0299019
583.0000,0.0301646
582.5000,0.0304281
582.0000,0.0306901
581.5000,0.0309593
581.0000,0.0312411
580.5000,0.0315323
580.0000,0.0318152
579.5000,0.0321129
579.0000,0.0324076
578.5000,0.0327224
578.0000,0.0330346
577.5000,0.033337
577.0000,0.0336499
576.5000,0.033956
576.0000,0.0342463
575.5000,0.0345633
575.0000,0.0348738
574.5000,0.0351872
574.0000,0.0355164
573.5000,0.035827
573.0000,0.0361577
572.5000,0.0364617
572.0000,0.0367976
571.5000,0.0371185
571.0000,0.0374573
570.5000,0.0377986
570.0000,0.0381496
569.5000,0.0384833
569.0000,0.0388452
568.5000,0.039181
568.0000,0.0395477
567.5000,0.039904
567.0000,0.0402653
566.5000,0.0406148
566.0000,0.040993
565.5000,0.0413661
565.0000,0.0417327
564.5000,0.0420816
564.0000,0.0424641
563.5000,0.0428147
563.0000,0.0432101
562.5000,0.0435752
562.0000,0.0439642
561.5000,0.044354
561.0000,0.0447574
560.5000,0.045136
560.0000,0.0455419
559.5000,0.0459368
559.0000,0.0463385
558.5000,0.0467354
558.0000,0.0471288
557.5000,0.0475311
557.0000,0.0479331
556.5000,0.0483567
556.0000,0.0487535
555.5000,0.0491615
555.0000,0.0495712
554.5000,0.049987
554.0000,0.0503842
553.5000,0.0508102
553.0000,0.0512157
552.5000,0.051629
552.0000,0.0520226
551.5000,0.0524463
551.0000,0.0528518
550.5000,0.0532766
550.0000,0.0536808
549.5000,0.0540983
549.0000,0.0545137
548.5000,0.0549584
548.0000,0.0553684
547.5000,0.0557931
547.0000,0.0561864
546.5000,0.0566236
546.0000,0.0570249
545.5000,0.0574551
545.0000,0.0578322
544.5000,0.0582562
544.0000,0.0586481
543.5000,0.0590544
543.0000,0.0594552
542.5000,0.0598628
542.0000,0.0602358
541.5000,0.0606284
541.0000,0.0610027
540.5000,0.061369
540.0000,0.0617534
539.5000,0.0621378
539.0000,0.0624976
538.5000,0.0628402
538.0000,0.0631996
537.5000,0.0635625
537.0000,0.0639155
536.5000,0.0642789
536.0000,0.0646214
535.5000,0.0649565
535.0000,0.0652858
534.5000,0.0656195
534.0000,0.0659461
533.5000,0.0662486
533.0000,0.0665326
532.5000,0.0668038
532.0000,0.0670859
531.5000,0.0673675
531.0000,0.0676378
530.5000,0.0678795
530.0000,0.0681097
529.5000,0.0683099
529.0000,0.0685542
528.5000,0.06878
528.0000,0.0689973
527.5000,0.0691993
527.0000,0.0693891
526.5000,0.0695488
526.0000,0.0697381
525.5000,0.0699008
525.0000,0.0700589
524.5000,0.0701958
524.0000,0.0702993
523.5000,0.0704007
523.0000,0.07051
522.5000,0.0706151
522.0000,0.0707035
521.5000,0.070743
521.0000,0.0707803
520.5000,0.0708107
520.0000,0.0708445
519.5000,0.0708349
519.0000,0.0708555
518.5000,0.0708203
518.0000,0.0707829
517.5000,0.0707375
517.0000,0.0706994
516.5000,0.0706368
516.0000,0.070566
515.5000,0.070472
515.0000,0.0703825
514.5000,0.0702562
514.0000,0.0701481
513.5000,0.0700147
513.0000,0.069871
512.5000,0.0696866
512.0000,0.0695332
511.5000,0.0693477
511.0000,0.0691704
510.5000,0.0689815
510.0000,0.0688841
509.5000,0.0686706
509.0000,0.0684596
508.5000,0.0682304
508.0000,0.0679907
507.5000,0.0677525
507.0000,0.0675105
506.5000,0.0672631
506.0000,0.0670026
505.5000,0.0667328
505.0000,0.0664839
504.5000,0.066214
504.0000,0.0659618
503.5000,0.065674
503.0000,0.0653948
502.5000,0.0651275
502.0000,0.0648472
501.5000,0.0645441
501.0000,0.0642614
500.5000,0.0639691
500.0000,0.0637059
499.5000,0.0634053
499.0000,0.0631179
498.5000,0.0628168
498.0000,0.0625302
497.5000,0.0622371
497.0000,0.0619554
496.5000,0.0616429
496.0000,0.0613791
495.5000,0.0610922
495.0000,0.0607992
494.5000,0.0605122
494.0000,0.0602327
493.5000,0.0599546
493.0000,0.0596784
492.5000,0.059392
492.0000,0.0591236
491.5000,0.058852
491.0000,0.058583
490.5000,0.0583063
490.0000,0.0580689
489.5000,0.0578076
489.0000,0.0575481
488.5000,0.0572727
488.0000,0.0570238
487.5000,0.0567984
487.0000,0.0565554
486.5000,0.0563043
486.0000,0.0560657
485.5000,0.0558606
485.0000,0.0556476
484.5000,0.0554038
484.0000,0.0551767
483.5000,0.0549626
483.0000,0.0547418
482.5000,0.0545328
482.0000,0.0543239
481.5000,0.0541338
481.0000,0.0539388
480.5000,0.0537495
480.0000,0.0535711
479.5000,0.053362
479.0000,0.05317
478.5000,0.052995
478.0000,0.0528177
477.5000,0.0526483
477.0000,0.0524905
476.5000,0.0523368
476.0000,0.0521657
475.5000,0.0520198
475.0000,0.0518548
474.5000,0.0517117
474.0000,0.051546
473.5000,0.0514076
473.0000,0.0512519
472.5000,0.0511347
472.0000,0.050991
471.5000,0.0508644
471.0000,0.0507402
470.5000,0.0506409
470.0000,0.0505242
469.5000,0.0504051
469.0000,0.0502794
468.5000,0.0501859
468.0000,0.0500671
467.5000,0.0499739
467.0000,0.0498687
466.5000,0.0497688
466.0000,0.049667
465.5000,0.0495779
465.0000,0.0494759
464.5000,0.0493982
464.0000,0.0492994
463.5000,0.0492312
463.0000,0.0491529
462.5000,0.0490603
462.0000,0.048982
461.5000,0.0489173
461.0000,0.0488386
460.5000,0.0487758
460.0000,0.0487116
459.5000,0.0486371
459.0000,0.0485904
458.5000,0.0485192
458.0000,0.0484497
457.5000,0.0483772
457.0000,0.0483146
456.5000,0.0482611
456.0000,0.0482318
455.5000,0.0481573
455.0000,0.048107
454.5000,0.0480485
454.0000,0.0479966
453.5000,0.0479383
453.0000,0.0479107
452.5000,0.0478821
452.0000,0.0478632
451.5000,0.0478124
451.0000,0.0477737
450.5000,0.0477345
450.0000,0.0476638
449.5000,0.0476274
449.0000,0.0476091
448.5000,0.0475917
448.0000,0.047578
447.5000,0.0475547
447.0000,0.0475393
446.5000,0.0475317
446.0000,0.0475099
445.5000,0.047497
445.0000,0.0474932
444.5000,0.047479
444.0000,0.0474591
443.5000,0.0474192
443.0000,0.0473909
442.5000,0.0473625
442.0000,0.0473655
441.5000,0.0473568
441.0000,0.0473568
440.5000,0.0473304
440.0000,0.0473202
439.5000,0.0473099
439.0000,0.0473114
438.5000,0.0473142
438.0000,0.0472807
437.5000,0.0472865
437.0000,0.0472713
436.5000,0.0472614
436.0000,0.0472653
435.5000,0.0472747
435.0000,0.0472742
434.5000,0.0472598
434.0000,0.0472458
433.5000,0.0472442
433.0000,0.0472264
432.5000,0.0472139
432.0000,0.0471953
431.5000,0.0471974
431.0000,0.0471837
430.5000,0.0471748
430.0000,0.0471907
429.5000,0.0471923
429.0000,0.0472001
428.5000,0.047196
428.0000,0.047226
427.5000,0.0472424
427.0000,0.0472511
426.5000,0.0472818
426.0000,0.0472902
425.5000,0.0472941
425.0000,0.0473073
424.5000,0.0473426
424.0000,0.0473653
423.5000,0.0473813
423.0000,0.0473928
422.5000,0.0473983
422.0000,0.0474138
421.5000,0.0474258
421.0000,0.0474423
420.5000,0.0474501
420.0000,0.0474587
419.5000,0.0474758
419.0000,0.0474874
418.5000,0.0475252
418.0000,0.0475501
417.5000,0.0475624
417.0000,0.0475853
416.5000,0.0476187
416.0000,0.0476522
415.5000,0.0476781
415.0000,0.0477026
414.5000,0.0477394
414.0000,0.0477712
413.5000,0.0478033
413.0000,0.0478407
412.5000,0.0478779
412.0000,0.0479047
411.5000,0.0479438
411.0000,0.0479641
410.5000,0.0479741
410.0000,0.0479866
409.5000,0.0480095
409.0000,0.0480088
408.5000,0.048043
408.0000,0.0480532
407.5000,0.048094
407.0000,0.0481164
406.5000,0.0481588
406.0000,0.0482284
405.5000,0.0483197
405.0000,0.0483689
404.5000,0.0484141
404.0000,0.048435
403.5000,0.048462
403.0000,0.048533
402.5000,0.0485786
402.0000,0.0486232
401.5000,0.0486601
401.0000,0.0487347
400.5000,0.0487861
400.0000,0.0488306
399.5000,0.0488707
399.0000,0.0488955
398.5000,0.0489269
398.0000,0.0489838
397.5000,0.0490305
397.0000,0.049105
396.5000,0.0491661
396.0000,0.049213
395.5000,0.0492675
395.0000,0.0493115
394.5000,0.0493754
394.0000,0.0494233
393.5000,0.0494597
393.0000,0.0495346
392.5000,0.04959
392.0000,0.0496623
391.5000,0.0497151
391.0000,0.0497652
390.5000,0.0498038
390.0000,0.0498575
389.5000,0.049841
389.0000,0.049899
388.5000,0.0499511
388.0000,0.0500188
387.5000,0.0500944
387.0000,0.0501399
386.5000,0.0501952
386.0000,0.0502375
385.5000,0.0502954
385.0000,0.0503464
384.5000,0.0503792
384.0000,0.0503846
383.5000,0.0504113
383.0000,0.0504995
382.5000,0.0505593
382.0000,0.050631
381.5000,0.0506934
381.0000,0.0507392
380.5000,0.0507839
380.0000,0.0508305
379.5000,0.0508837
379.0000,0.0509666
378.5000,0.0510334
378.0000,0.0510622
377.5000,0.0511528
377.0000,0.0511877
376.5000,0.0512412
376.0000,0.0513262
375.5000,0.0513776
375.0000,0.0514572
374.5000,0.0515007
374.0000,0.0515209
373.5000,0.0515977
373.0000,0.0516601
372.5000,0.0517148
372.0000,0.0517593
371.5000,0.0518368
371.0000,0.051883
370.5000,0.0519444
370.0000,0.0521172
369.5000,0.0521653
369.0000,0.052236
368.5000,0.0522698
368.0000,0.0523933
367.5000,0.0524036
367.0000,0.052494
366.5000,0.0525889
366.0000,0.0526277
365.5000,0.0527055
365.0000,0.052763
364.5000,0.0528242
364.0000,0.0529036
363.5000,0.0529362
363.0000,0.0529874
362.5000,0.053045
362.0000,0.0530952
361.5000,0.0531795
361.0000,0.0532344
360.5000,0.053311
360.0000,0.0533578
359.5000,0.0534529
359.0000,0.0535129
358.5000,0.0535845
358.0000,0.053682
357.5000,0.0537421
357.0000,0.0537473
356.5000,0.0538595
356.0000,0.0538986
355.5000,0.0539224
355.0000,0.0539434
354.5000,0.0540029
354.0000,0.054064
353.5000,0.0541257
353.0000,0.0541669
352.5000,0.0542448
352.0000,0.0543067
351.5000,0.0543696
351.0000,0.0543901
350.5000,0.0544132
350.0000,0.0544526
349.5000,0.0544737
349.0000,0.0544839
348.5000,0.0545482
348.0000,0.0545972
347.5000,0.0546536
347.0000,0.0547434
346.5000,0.0548114
346.0000,0.0548725
345.5000,0.0549473
345.0000,0.054959
344.5000,0.0549711
344.0000,0.0549704
343.5000,0.0550219
343.0000,0.0550921
342.5000,0.0551307
342.0000,0.0551659
341.5000,0.0552102
341.0000,0.0552721
340.5000,0.0552772
340.0000,0.0548642
339.5000,0.0548808
339.0000,0.0549575
338.5000,0.0550339
338.0000,0.0551086
337.5000,0.0551338
337.0000,0.0552539
336.5000,0.0553318
336.0000,0.0553768
335.5000,0.0554036
335.0000,0.0555035
334.5000,0.0555938
334.0000,0.0557113
333.5000,0.0556875
333.0000,0.0557189
332.5000,0.0557573
332.0000,0.0558374
331.5000,0.0558458
331.0000,0.0559693
330.5000,0.056065
330.0000,0.0560942
329.5000,0.0561684
329.0000,0.0563491
328.5000,0.0563671
328.0000,0.0564833
327.5000,0.0565236
327.0000,0.0565931
326.5000,0.0566375
326.0000,0.0567724
325.5000,0.0568073
325.0000,0.0568559
324.5000,0.0569863
324.0000,0.057115
323.5000,0.057231
323.0000,0.0573234
322.5000,0.0573807
322.0000,0.0575049
321.5000,0.0576332
321.0000,0.0576918
320.5000,0.0577893
320.0000,0.0578443
319.5000,0.0579137
319.0000,0.0580533
318.5000,0.0581353
318.0000,0.0582129
317.5000,0.0583572
317.0000,0.0585139
316.5000,0.0586419
316.0000,0.0587308
315.5000,0.0588475
315.0000,0.0589138
314.5000,0.0590077
314.0000,0.0591141
313.5000,0.059217
313.0000,0.0592543
312.5000,0.0593945
312.0000,0.0595006
311.5000,0.0596585
311.0000,0.0597518
310.5000,0.0598753
310.0000,0.0600035
309.5000,0.0601561
309.0000,0.0603005
308.5000,0.0604014
308.0000,0.0604918
307.5000,0.0606229
307.0000,0.0607684
306.5000,0.0609183
306.0000,0.0609766
305.5000,0.0610664
305.0000,0.0612159
304.5000,0.0613291
304.0000,0.0614549
303.5000,0.0616101
303.0000,0.0617453
302.5000,0.061872
302.0000,0.0620269
301.5000,0.0621526
301.0000,0.0622742
300.5000,0.0624296
300.0000,0.0625864
299.5000,0.0627343
299.0000,0.0628625
298.5000,0.0630047
298.0000,0.0631338
297.5000,0.0632924
297.0000,0.0633936
296.5000,0.0635554
296.0000,0.0636802
295.5000,0.0637959
295.0000,0.0639609
294.5000,0.0641307
294.0000,0.0642473
293.5000,0.0643614
293.0000,0.0644917
292.5000,0.0646829
292.0000,0.0648464
291.5000,0.0650278
291.0000,0.0651561
290.5000,0.0653022
290.0000,0.065488
289.5000,0.0656823
289.0000,0.0658293
288.5000,0.0660435
288.0000,0.0661914
287.5000,0.06639
287.0000,0.0665307
286.5000,0.0666834
286.0000,0.0668329
285.5000,0.0670616
285.0000,0.0672728
284.5000,0.0674287
284.0000,0.0676312
283.5000,0.0678226
283.0000,0.0680057
282.5000,0.0681738
282.0000,0.0684246
281.5000,0.0686121
281.0000,0.0688636
280.5000,0.069062
280.0000,0.0692967
279.5000,0.0695312
279.0000,0.069805
278.5000,0.0700322
278.0000,0.0702865
277.5000,0.0705392
277.0000,0.070788
276.5000,0.0710041
276.0000,0.0712329
275.5000,0.071442
275.0000,0.0716993
274.5000,0.0719604
274.0000,0.0722148
273.5000,0.0724492
273.0000,0.0726862
272.5000,0.0728783
272.0000,0.0731454
271.5000,0.0733465
271.0000,0.0735769
270.5000,0.0738154
270.0000,0.0740633
269.5000,0.074242
269.0000,0.0744054
268.5000,0.0746119
268.0000,0.0748142
267.5000,0.0750186
267.0000,0.0752203
266.5000,0.0754817
266.0000,0.075653
265.5000,0.0758634
265.0000,0.0760516
264.5000,0.0762519
264.0000,0.0764075
263.5000,0.076571
263.0000,0.0767344
262.5000,0.0768862
262.0000,0.0770133
261.5000,0.0771793
261.0000,0.0773146
260.5000,0.0774826
260.0000,0.0776382
259.5000,0.0777686
259.0000,0.0778657
258.5000,0.0779913
258.0000,0.0781085
257.5000,0.0782318
257.0000,0.0783389
256.5000,0.0784317
256.0000,0.0785359
255.5000,0.0786662
255.0000,0.078792
254.5000,0.0789037
254.0000,0.0789818
253.5000,0.0791027
253.0000,0.0792214
252.5000,0.0793241
252.0000,0.0793808
251.5000,0.079468
251.0000,0.0795444
250.5000,0.0795855
250.0000,0.0796618
249.5000,0.0797074
249.0000,0.0797778
248.5000,0.0798153
248.0000,0.0798779
247.5000,0.0799361
247.0000,0.0799315
246.5000,0.0800138
246.0000,0.080029
245.5000,0.0800198
245.0000,0.0800527
244.5000,0.0800753
244.0000,0.0800774
243.5000,0.0800736
243.0000,0.0801028
242.5000,0.0801164
242.0000,0.0800904
241.5000,0.0800569
241.0000,0.0800479
240.5000,0.0800494
240.0000,0.0800262
239.5000,0.079977
239.0000,0.0799594
238.5000,0.0798889
238.0000,0.0798486
237.5000,0.0797766
237.0000,0.0797284
236.5000,0.0796711
236.0000,0.0796359
235.5000,0.0795196
235.0000,0.0794537
234.5000,0.0794082
234.0000,0.0793223
233.5000,0.0792236
233.0000,0.0791229
232.5000,0.0790176
232.0000,0.0789064
231.5000,0.0787862
231.0000,0.0786925
230.5000,0.0785131
230.0000,0.0783858
229.5000,0.0782586
229.0000,0.0780837
228.5000,0.0778988
228.0000,0.0777224
227.5000,0.0775359
227.0000,0.0773282
226.5000,0.0771297
226.0000,0.0769383
225.5000,0.0767378
225.0000,0.0764877
224.5000,0.076281
224.0000,0.076066
223.5000,0.0757747
223.0000,0.0755008
222.5000,0.0752608
222.0000,0.0749644
221.5000,0.0746955
221.0000,0.0743931
220.5000,0.0740568
220.0000,0.0737261
219.5000,0.0734247
219.0000,0.073062
218.5000,0.0726675
218.0000,0.0722983
217.5000,0.0718934
217.0000,0.0714801
216.5000,0.0711014
216.0000,0.0706818
215.5000,0.0702674
215.0000,0.0698438
214.5000,0.0694075
214.0000,0.0689691
213.5000,0.0685602
213.0000,0.0680911
212.5000,0.0675814
212.0000,0.0670826
211.5000,0.0666189
211.0000,0.0661385
210.5000,0.0656496
210.0000,0.0651975
209.5000,0.0647274
209.0000,0.0643441
208.5000,0.0638272
208.0000,0.0633396
207.5000,0.0629055
207.0000,0.0624324
206.5000,0.062023
206.0000,0.0616319
205.5000,0.0612249
205.0000,0.0608377
204.5000,0.0604993
204.0000,0.0601156
203.5000,0.0597356
203.0000,0.0594029
202.5000,0.0591261
202.0000,0.0589136
201.5000,0.0587182
201.0000,0.0585946
200.5000,0.058402
200.0000,0.0583751

##### Extended Information
[Comments]
Sample name,2_20-02
Comment,2_20-02
User
Division
Company,Uni PD

[Detailed Information]
Creation date,20/02/2024 18:11

Data array type,Linear data array
Horizontal axis,Wavelength [nm]
Vertical axis,Abs
Start,1200 nm
End,200 nm
Data interval,0.5 nm
Data points,2001    

[Measurement Information]
Instrument name,Jasco V-770
Model name,V-770
Serial No.,A035961801

Accessory,USE-753
Accessory S/N,A035961801
  Cell,
  Ref. beam,

Measurement date,20/02/2024 18:10

Parameter file,D:\DATI UTENTI\RUNPENG M\RM 200-1200nm 1nm 1000nm-min.uvsp
Photometric mode,Abs
Measurement range,1200 - 200 nm
Data interval,0.5 nm
UV/Vis bandwidth,1.0 nm
NIR bandwidth,8.0 nm
UV/Vis response,0.96 sec
NIR response,0.96 sec
Scan speed,1000 nm/min
Change source at,340 nm
Change grating at,850 nm
Light source,D2/WI
Filter exchange,Step
Correction,Baseline

