TITLE,453 Au Runpeng POST centrifuga 1000RCF surn_10-01-25
DATA TYPE,ULTRAVIOLET SPECTRUM
ORIGIN,JASCO
OWNER,
DATE,25/01/10
TIME,11:45:25
SPECTROMETER/DATA SYSTEM,
LOCALE,1040
RESOLUTION,
DELTAX,-0.5
XUNITS,NANOMETERS
YUNITS,ABSORBANCE
FIRSTX, 1200.0000
LASTX,  200.0000
NPOINTS,    2001
FIRSTY,    -0.00030
MAXY,     0.14328
MINY,    -0.00097
XYDATA
1200.0000,-0.000298159
1199.5000,-0.000301323
1199.0000,-0.000292328
1198.5000,-0.000311078
1198.0000,-0.000325461
1197.5000,-0.000305989
1197.0000,-0.00029655
1196.5000,-0.00031093
1196.0000,-0.000313558
1195.5000,-0.000309886
1195.0000,-0.000321378
1194.5000,-0.000311167
1194.0000,-0.000345626
1193.5000,-0.000347646
1193.0000,-0.00035742
1192.5000,-0.000348889
1192.0000,-0.000358808
1191.5000,-0.000348826
1191.0000,-0.000348747
1190.5000,-0.000295326
1190.0000,-0.000306563
1189.5000,-0.00025962
1189.0000,-0.000293721
1188.5000,-0.000283186
1188.0000,-0.000316737
1187.5000,-0.000269951
1187.0000,-0.000255284
1186.5000,-0.000242423
1186.0000,-0.000251578
1185.5000,-0.000238313
1185.0000,-0.000263261
1184.5000,-0.000261955
1184.0000,-0.000209209
1183.5000,-0.000195558
1183.0000,-0.000219804
1182.5000,-0.000213197
1182.0000,-0.00021785
1181.5000,-0.000207444
1181.0000,-0.00017102
1180.5000,-0.000139257
1180.0000,-0.000148791
1179.5000,-0.000146502
1179.0000,-0.000126118
1178.5000,-0.000138178
1178.0000,-0.000107277
1177.5000,-0.000102546
1177.0000,-7.27172E-005
1176.5000,-6.69344E-005
1176.0000,-8.98809E-005
1175.5000,-0.000113021
1175.0000,-0.00012564
1174.5000,-0.000198878
1174.0000,-0.000187647
1173.5000,-0.000174829
1173.0000,-0.000135239
1172.5000,-0.000154593
1172.0000,-0.000118591
1171.5000,-0.000129818
1171.0000,-0.000112447
1170.5000,-0.000150552
1170.0000,-0.000144752
1169.5000,-0.000157619
1169.0000,-0.000136007
1168.5000,-0.000143464
1168.0000,-0.000166738
1167.5000,-0.000182646
1167.0000,-0.00015876
1166.5000,-0.000150433
1166.0000,-0.000117945
1165.5000,-0.000190104
1165.0000,-0.000190974
1164.5000,-0.000233754
1164.0000,-0.000203254
1163.5000,-0.000236759
1163.0000,-0.000251784
1162.5000,-0.000228639
1162.0000,-0.000219683
1161.5000,-0.000263154
1161.0000,-0.000294735
1160.5000,-0.000313083
1160.0000,-0.000285135
1159.5000,-0.000318982
1159.0000,-0.000301861
1158.5000,-0.000313628
1158.0000,-0.0002981
1157.5000,-0.000361017
1157.0000,-0.00038701
1156.5000,-0.000401889
1156.0000,-0.000437263
1155.5000,-0.000483793
1155.0000,-0.000494429
1154.5000,-0.000480256
1154.0000,-0.000521481
1153.5000,-0.000542365
1153.0000,-0.000575501
1152.5000,-0.000628592
1152.0000,-0.000643073
1151.5000,-0.00065857
1151.0000,-0.000680279
1150.5000,-0.000704579
1150.0000,-0.000741271
1149.5000,-0.000717882
1149.0000,-0.000775278
1148.5000,-0.000794408
1148.0000,-0.000840029
1147.5000,-0.000804997
1147.0000,-0.000819561
1146.5000,-0.000881255
1146.0000,-0.000915591
1145.5000,-0.000880701
1145.0000,-0.000917607
1144.5000,-0.000921295
1144.0000,-0.000963211
1143.5000,-0.000945597
1143.0000,-0.000960894
1142.5000,-0.000914688
1142.0000,-0.000970762
1141.5000,-0.000957409
1141.0000,-0.00094093
1140.5000,-0.000922089
1140.0000,-0.000917904
1139.5000,-0.000888033
1139.0000,-0.000910679
1138.5000,-0.000895305
1138.0000,-0.000900386
1137.5000,-0.00087595
1137.0000,-0.00088851
1136.5000,-0.000808002
1136.0000,-0.000781023
1135.5000,-0.000738763
1135.0000,-0.000742772
1134.5000,-0.000709762
1134.0000,-0.000710302
1133.5000,-0.000678428
1133.0000,-0.000652462
1132.5000,-0.000633459
1132.0000,-0.000625423
1131.5000,-0.000629305
1131.0000,-0.000616437
1130.5000,-0.000550092
1130.0000,-0.000547546
1129.5000,-0.000568077
1129.0000,-0.000531772
1128.5000,-0.000532665
1128.0000,-0.000491962
1127.5000,-0.000476012
1127.0000,-0.000462524
1126.5000,-0.000470117
1126.0000,-0.000433269
1125.5000,-0.000451007
1125.0000,-0.000468172
1124.5000,-0.000456152
1124.0000,-0.000455937
1123.5000,-0.000454506
1123.0000,-0.000432455
1122.5000,-0.00044453
1122.0000,-0.000408906
1121.5000,-0.000418284
1121.0000,-0.00040013
1120.5000,-0.000445286
1120.0000,-0.000445356
1119.5000,-0.000484512
1119.0000,-0.000475994
1118.5000,-0.00051952
1118.0000,-0.000501176
1117.5000,-0.000553123
1117.0000,-0.000536023
1116.5000,-0.000526663
1116.0000,-0.000512954
1115.5000,-0.000520109
1115.0000,-0.000487913
1114.5000,-0.000538442
1114.0000,-0.000478553
1113.5000,-0.000477788
1113.0000,-0.000448463
1112.5000,-0.000456085
1112.0000,-0.000459227
1111.5000,-0.000476053
1111.0000,-0.00048137
1110.5000,-0.000498272
1110.0000,-0.000487704
1109.5000,-0.000466458
1109.0000,-0.000428041
1108.5000,-0.000453251
1108.0000,-0.000421033
1107.5000,-0.000442249
1107.0000,-0.000435536
1106.5000,-0.000429916
1106.0000,-0.00041074
1105.5000,-0.000418098
1105.0000,-0.000420429
1104.5000,-0.000423804
1104.0000,-0.000444659
1103.5000,-0.000420524
1103.0000,-0.000420167
1102.5000,-0.000366137
1102.0000,-0.000362727
1101.5000,-0.000326931
1101.0000,-0.000370727
1100.5000,-0.000370232
1100.0000,-0.000387172
1099.5000,-0.000376115
1099.0000,-0.00040865
1098.5000,-0.000349513
1098.0000,-0.000406854
1097.5000,-0.0004218
1097.0000,-0.000469094
1096.5000,-0.00043089
1096.0000,-0.000426305
1095.5000,-0.000396001
1095.0000,-0.000396293
1094.5000,-0.00041247
1094.0000,-0.000396967
1093.5000,-0.000402449
1093.0000,-0.000449874
1092.5000,-0.000404506
1092.0000,-0.000411626
1091.5000,-0.000359195
1091.0000,-0.000355496
1090.5000,-0.000361002
1090.0000,-0.000397478
1089.5000,-0.000361601
1089.0000,-0.000359222
1088.5000,-0.000334857
1088.0000,-0.000315219
1087.5000,-0.000298472
1087.0000,-0.000309027
1086.5000,-0.000311262
1086.0000,-0.000303554
1085.5000,-0.000295804
1085.0000,-0.000269402
1084.5000,-0.000262725
1084.0000,-0.000242093
1083.5000,-0.000271647
1083.0000,-0.00024053
1082.5000,-0.000264573
1082.0000,-0.000234324
1081.5000,-0.000207033
1081.0000,-0.000192786
1080.5000,-0.000236818
1080.0000,-0.000248511
1079.5000,-0.000284884
1079.0000,-0.000258532
1078.5000,-0.000247466
1078.0000,-0.00026923
1077.5000,-0.000264275
1077.0000,-0.000219662
1076.5000,-0.000265161
1076.0000,-0.00024625
1075.5000,-0.000307045
1075.0000,-0.000292174
1074.5000,-0.000291488
1074.0000,-0.000265618
1073.5000,-0.000316
1073.0000,-0.000276598
1072.5000,-0.000280767
1072.0000,-0.000284801
1071.5000,-0.000322557
1071.0000,-0.000265472
1070.5000,-0.00029089
1070.0000,-0.000287632
1069.5000,-0.000304896
1069.0000,-0.000276023
1068.5000,-0.000276382
1068.0000,-0.000281912
1067.5000,-0.0002914
1067.0000,-0.000308648
1066.5000,-0.00029472
1066.0000,-0.00029676
1065.5000,-0.000314032
1065.0000,-0.000268154
1064.5000,-0.00026235
1064.0000,-0.000235027
1063.5000,-0.000229132
1063.0000,-0.000257082
1062.5000,-0.000230073
1062.0000,-0.000195923
1061.5000,-0.000185827
1061.0000,-0.000185818
1060.5000,-0.000177869
1060.0000,-0.000147998
1059.5000,-0.000123726
1059.0000,-0.000122419
1058.5000,-0.000116306
1058.0000,-0.000129385
1057.5000,-0.000102774
1057.0000,-0.000134763
1056.5000,-0.000138696
1056.0000,-0.000159736
1055.5000,-0.00013279
1055.0000,-0.000159967
1054.5000,-0.000155767
1054.0000,-0.000169256
1053.5000,-0.000121832
1053.0000,-0.000148984
1052.5000,-0.000145436
1052.0000,-0.000161911
1051.5000,-0.000126828
1051.0000,-0.000137657
1050.5000,-0.000141068
1050.0000,-0.000124918
1049.5000,-0.000115449
1049.0000,-0.000160412
1048.5000,-0.000127662
1048.0000,-0.000167819
1047.5000,-0.000135494
1047.0000,-0.000141137
1046.5000,-0.0001143
1046.0000,-0.00015244
1045.5000,-0.000162666
1045.0000,-0.000189731
1044.5000,-0.000185254
1044.0000,-0.00022223
1043.5000,-0.000209305
1043.0000,-0.000223161
1042.5000,-0.000232038
1042.0000,-0.000202214
1041.5000,-0.000204328
1041.0000,-0.00021407
1040.5000,-0.000235579
1040.0000,-0.000216878
1039.5000,-0.000226693
1039.0000,-0.000210124
1038.5000,-0.000198345
1038.0000,-0.000186481
1037.5000,-0.000245747
1037.0000,-0.000245723
1036.5000,-0.000290582
1036.0000,-0.000268874
1035.5000,-0.000295583
1035.0000,-0.000283492
1034.5000,-0.000319119
1034.0000,-0.000330577
1033.5000,-0.000328836
1033.0000,-0.000274459
1032.5000,-0.000331566
1032.0000,-0.000282346
1031.5000,-0.000302214
1031.0000,-0.000243121
1030.5000,-0.000317406
1030.0000,-0.00029995
1029.5000,-0.000331721
1029.0000,-0.000304339
1028.5000,-0.000321351
1028.0000,-0.000286254
1027.5000,-0.000316429
1027.0000,-0.000300978
1026.5000,-0.000351014
1026.0000,-0.000307945
1025.5000,-0.00036691
1025.0000,-0.00030239
1024.5000,-0.000308394
1024.0000,-0.0002905
1023.5000,-0.000330678
1023.0000,-0.000298423
1022.5000,-0.000323881
1022.0000,-0.000261408
1021.5000,-0.000299615
1021.0000,-0.000250446
1020.5000,-0.000244092
1020.0000,-0.000207524
1019.5000,-0.000231085
1019.0000,-0.000178047
1018.5000,-0.00022784
1018.0000,-0.000195802
1017.5000,-0.000233688
1017.0000,-0.000266147
1016.5000,-0.000253959
1016.0000,-0.00023565
1015.5000,-0.000250141
1015.0000,-0.000250269
1014.5000,-0.000259105
1014.0000,-0.000229116
1013.5000,-0.000226311
1013.0000,-0.000185813
1012.5000,-0.000196213
1012.0000,-0.000195492
1011.5000,-0.000225936
1011.0000,-0.000241842
1010.5000,-0.000166589
1010.0000,-0.000199572
1009.5000,-0.000148066
1009.0000,-0.000172632
1008.5000,-0.000143938
1008.0000,-0.000140759
1007.5000,-8.3821E-005
1007.0000,-0.0001401
1006.5000,-0.000124002
1006.0000,-0.000177651
1005.5000,-0.000102642
1005.0000,-0.000134169
1004.5000,-0.000101775
1004.0000,-0.000136231
1003.5000,-0.000101727
1003.0000,-9.86577E-005
1002.5000,9.92671E-007
1002.0000,-7.50511E-005
1001.5000,-5.26551E-005
1001.0000,-4.69872E-005
1000.5000,7.34365E-006
1000.0000,-7.66536E-006
999.5000,-7.84763E-006
999.0000,-2.86723E-005
998.5000,6.49237E-006
998.0000,-2.57176E-005
997.5000,1.39925E-005
997.0000,-1.62858E-005
996.5000,1.99076E-005
996.0000,-2.16355E-005
995.5000,3.44435E-005
995.0000,5.6638E-005
994.5000,2.10962E-005
994.0000,5.1409E-005
993.5000,3.7207E-005
993.0000,9.9734E-006
992.5000,-1.4078E-005
992.0000,-5.40791E-006
991.5000,-3.46827E-005
991.0000,-2.68788E-005
990.5000,-5.35603E-005
990.0000,-2.555E-005
989.5000,-2.77793E-005
989.0000,-2.00112E-005
988.5000,-2.97148E-005
988.0000,-1.93737E-005
987.5000,-2.04088E-005
987.0000,-9.3336E-005
986.5000,-0.000146507
986.0000,-9.96565E-005
985.5000,-0.000112393
985.0000,-7.05577E-005
984.5000,-0.000159466
984.0000,-0.000135935
983.5000,-0.000198754
983.0000,-0.000200125
982.5000,-0.000250257
982.0000,-0.000217951
981.5000,-0.000248468
981.0000,-0.000240498
980.5000,-0.000325438
980.0000,-0.000263106
979.5000,-0.000330486
979.0000,-0.000279732
978.5000,-0.000361254
978.0000,-0.000369283
977.5000,-0.000371557
977.0000,-0.000286729
976.5000,-0.000320406
976.0000,-0.000281673
975.5000,-0.000334081
975.0000,-0.000231741
974.5000,-0.000280105
974.0000,-0.00024571
973.5000,-0.000319275
973.0000,-0.00024537
972.5000,-0.00025614
972.0000,-0.000285012
971.5000,-0.0003013
971.0000,-0.000185687
970.5000,-0.000230412
970.0000,-0.00018461
969.5000,-0.000227001
969.0000,-0.000245644
968.5000,-0.000237006
968.0000,-0.000232209
967.5000,-0.000234097
967.0000,-0.000198555
966.5000,-0.000210173
966.0000,-0.000203982
965.5000,-0.000245762
965.0000,-0.000249425
964.5000,-0.000222625
964.0000,-0.000304037
963.5000,-0.000276909
963.0000,-0.000415192
962.5000,-0.000362702
962.0000,-0.000431878
961.5000,-0.00042504
961.0000,-0.000467443
960.5000,-0.000460222
960.0000,-0.000527689
959.5000,-0.000494922
959.0000,-0.000627438
958.5000,-0.00060451
958.0000,-0.000643308
957.5000,-0.000582574
957.0000,-0.000660661
956.5000,-0.000664639
956.0000,-0.000601566
955.5000,-0.000608301
955.0000,-0.000713503
954.5000,-0.000667192
954.0000,-0.000715266
953.5000,-0.000693575
953.0000,-0.000756766
952.5000,-0.00072906
952.0000,-0.000791558
951.5000,-0.000731864
951.0000,-0.000760031
950.5000,-0.000717941
950.0000,-0.000736152
949.5000,-0.000716603
949.0000,-0.000706894
948.5000,-0.000649397
948.0000,-0.000580595
947.5000,-0.000569379
947.0000,-0.000446932
946.5000,-0.000454243
946.0000,-0.000419918
945.5000,-0.00042292
945.0000,-0.000425771
944.5000,-0.000431848
944.0000,-0.0003506
943.5000,-0.000408615
943.0000,-0.000344735
942.5000,-0.000314746
942.0000,-0.000319029
941.5000,-0.000411586
941.0000,-0.000374682
940.5000,-0.000394548
940.0000,-0.000363301
939.5000,-0.000420545
939.0000,-0.000339046
938.5000,-0.000426815
938.0000,-0.000326225
937.5000,-0.000375415
937.0000,-0.000295707
936.5000,-0.000291269
936.0000,-0.000205148
935.5000,-0.000319236
935.0000,-0.000216846
934.5000,-0.000259908
934.0000,-0.000205766
933.5000,-0.000255849
933.0000,-0.00020863
932.5000,-0.000369883
932.0000,-0.000348943
931.5000,-0.000468657
931.0000,-0.000394636
930.5000,-0.000413886
930.0000,-0.000359619
929.5000,-0.000455448
929.0000,-0.00042181
928.5000,-0.000466574
928.0000,-0.000408955
927.5000,-0.000445422
927.0000,-0.000360609
926.5000,-0.000479765
926.0000,-0.000451897
925.5000,-0.000525711
925.0000,-0.000445963
924.5000,-0.000544162
924.0000,-0.000509109
923.5000,-0.000538677
923.0000,-0.000500951
922.5000,-0.000473901
922.0000,-0.000526347
921.5000,-0.000538819
921.0000,-0.000475172
920.5000,-0.000565032
920.0000,-0.000638841
919.5000,-0.000601431
919.0000,-0.000661309
918.5000,-0.000693402
918.0000,-0.000785238
917.5000,-0.00077936
917.0000,-0.000773475
916.5000,-0.000676443
916.0000,-0.000692634
915.5000,-0.000615636
915.0000,-0.000671273
914.5000,-0.000630094
914.0000,-0.000643075
913.5000,-0.000609293
913.0000,-0.000618114
912.5000,-0.000621178
912.0000,-0.000703375
911.5000,-0.000695447
911.0000,-0.000745135
910.5000,-0.000683034
910.0000,-0.000671185
909.5000,-0.000542046
909.0000,-0.000630053
908.5000,-0.000614312
908.0000,-0.000696154
907.5000,-0.000615925
907.0000,-0.000694725
906.5000,-0.000659587
906.0000,-0.00068549
905.5000,-0.000556926
905.0000,-0.000670429
904.5000,-0.000595577
904.0000,-0.000522271
903.5000,-0.000492015
903.0000,-0.000549559
902.5000,-0.000585152
902.0000,-0.000565135
901.5000,-0.000610459
901.0000,-0.000586116
900.5000,-0.000603798
900.0000,-0.000598599
899.5000,-0.000585029
899.0000,-0.000575959
898.5000,-0.000656239
898.0000,-0.000625774
897.5000,-0.000613268
897.0000,-0.000540856
896.5000,-0.000451991
896.0000,-0.000415563
895.5000,-0.000415218
895.0000,-0.000365408
894.5000,-0.000379946
894.0000,-0.000336387
893.5000,-0.000294035
893.0000,-0.000224476
892.5000,-0.000266308
892.0000,-8.08391E-005
891.5000,-0.000169427
891.0000,-6.78892E-005
890.5000,-0.000184896
890.0000,-7.4531E-005
889.5000,-0.000239457
889.0000,1.11487E-005
888.5000,-0.000204934
888.0000,-2.37586E-005
887.5000,-8.82241E-005
887.0000,9.6924E-005
886.5000,0.000100388
886.0000,0.000285293
885.5000,0.00027494
885.0000,0.000341578
884.5000,0.000308591
884.0000,0.000417607
883.5000,0.000349618
883.0000,0.000470408
882.5000,0.000615543
882.0000,0.000721871
881.5000,0.000574304
881.0000,0.000615951
880.5000,0.000469786
880.0000,0.00057745
879.5000,0.000625875
879.0000,0.000815709
878.5000,0.000708709
878.0000,0.000797876
877.5000,0.000622315
877.0000,0.0006978
876.5000,0.000750961
876.0000,0.0006722
875.5000,0.000675631
875.0000,0.000787379
874.5000,0.000979469
874.0000,0.00100252
873.5000,0.00103244
873.0000,0.000995755
872.5000,0.001144
872.0000,0.000978909
871.5000,0.000946293
871.0000,0.000841202
870.5000,0.000990015
870.0000,0.000824787
869.5000,0.000913128
869.0000,0.000864733
868.5000,0.000942238
868.0000,0.00079857
867.5000,0.000925641
867.0000,0.000598557
866.5000,0.000468824
866.0000,0.00043692
865.5000,0.000694898
865.0000,0.000456899
864.5000,0.00069359
864.0000,0.000652415
863.5000,0.000663214
863.0000,0.000265996
862.5000,0.000447924
862.0000,0.000330802
861.5000,0.000451717
861.0000,0.000269255
860.5000,0.000542379
860.0000,0.00035662
859.5000,0.000489781
859.0000,0.00016693
858.5000,5.46246E-005
858.0000,1.94518E-006
857.5000,-8.46817E-005
857.0000,-0.00019455
856.5000,-0.000138053
856.0000,-0.000177979
855.5000,2.21472E-006
855.0000,8.19395E-005
854.5000,3.19013E-005
854.0000,0.000171772
853.5000,0.000205581
853.0000,0.000198983
852.5000,0.000138716
852.0000,7.01229E-005
851.5000,9.64608E-005
851.0000,0.000497828
850.5000,0.000446786
850.0000,0.00156918
849.5000,0.00159983
849.0000,0.00156871
848.5000,0.00157239
848.0000,0.00155327
847.5000,0.00160874
847.0000,0.00160755
846.5000,0.00162098
846.0000,0.00161866
845.5000,0.00160708
845.0000,0.00164836
844.5000,0.00164432
844.0000,0.00161712
843.5000,0.00159472
843.0000,0.00157726
842.5000,0.00159668
842.0000,0.00161522
841.5000,0.00164598
841.0000,0.00164711
840.5000,0.00170104
840.0000,0.00174589
839.5000,0.00172433
839.0000,0.00176204
838.5000,0.00177184
838.0000,0.0017937
837.5000,0.00184793
837.0000,0.00184817
836.5000,0.00187103
836.0000,0.00185238
835.5000,0.00188713
835.0000,0.00187311
834.5000,0.00193637
834.0000,0.00196559
833.5000,0.00196957
833.0000,0.00196316
832.5000,0.00202814
832.0000,0.00199998
831.5000,0.00205326
831.0000,0.00209407
830.5000,0.00210957
830.0000,0.00209828
829.5000,0.00211206
829.0000,0.00211278
828.5000,0.00211664
828.0000,0.00208017
827.5000,0.00210428
827.0000,0.00209407
826.5000,0.00214835
826.0000,0.00216279
825.5000,0.00217152
825.0000,0.0021553
824.5000,0.00218963
824.0000,0.00215655
823.5000,0.00215031
823.0000,0.00216813
822.5000,0.00216017
822.0000,0.00212572
821.5000,0.00210939
821.0000,0.00210672
820.5000,0.00207797
820.0000,0.00211468
819.5000,0.00216445
819.0000,0.00215388
818.5000,0.00208706
818.0000,0.00211076
817.5000,0.00208153
817.0000,0.00208789
816.5000,0.00206371
816.0000,0.00208759
815.5000,0.00207037
815.0000,0.00204204
814.5000,0.00206455
814.0000,0.00207874
813.5000,0.00209401
813.0000,0.00209864
812.5000,0.00209288
812.0000,0.00216427
811.5000,0.00218257
811.0000,0.0021945
810.5000,0.00216754
810.0000,0.00213303
809.5000,0.00213321
809.0000,0.00211218
808.5000,0.00211961
808.0000,0.00210933
807.5000,0.0021325
807.0000,0.00210719
806.5000,0.0021246
806.0000,0.00217389
805.5000,0.00220704
805.0000,0.00224434
804.5000,0.00226061
804.0000,0.00222985
803.5000,0.00221434
803.0000,0.00221137
802.5000,0.00222848
802.0000,0.00223531
801.5000,0.0022457
801.0000,0.00226097
800.5000,0.00224951
800.0000,0.00225663
799.5000,0.00226299
799.0000,0.00230035
798.5000,0.00230094
798.0000,0.00232642
797.5000,0.00231846
797.0000,0.00231775
796.5000,0.00234905
796.0000,0.00233824
795.5000,0.00232761
795.0000,0.0023206
794.5000,0.00232743
794.0000,0.00235398
793.5000,0.00237572
793.0000,0.00239514
792.5000,0.00237739
792.0000,0.00237715
791.5000,0.00241902
791.0000,0.00244052
790.5000,0.00246678
790.0000,0.00244474
789.5000,0.00242461
789.0000,0.00241855
788.5000,0.00241391
788.0000,0.00244207
787.5000,0.002459
787.0000,0.00244783
786.5000,0.00247818
786.0000,0.00244343
785.5000,0.00248038
785.0000,0.00246571
784.5000,0.00247877
784.0000,0.00247818
783.5000,0.00249457
783.0000,0.00250087
782.5000,0.00248477
782.0000,0.00247996
781.5000,0.00248157
781.0000,0.00247717
780.5000,0.00245989
780.0000,0.00244801
779.5000,0.00245941
779.0000,0.00245062
778.5000,0.0024685
778.0000,0.0024679
777.5000,0.00248602
777.0000,0.00249986
776.5000,0.002508
776.0000,0.00250954
775.5000,0.00249594
775.0000,0.0025023
774.5000,0.00248555
774.0000,0.00249202
773.5000,0.00251554
773.0000,0.00253734
772.5000,0.00256044
772.0000,0.00253918
771.5000,0.00252694
771.0000,0.00256561
770.5000,0.0025551
770.0000,0.0025649
769.5000,0.00251827
769.0000,0.00254934
768.5000,0.00255237
768.0000,0.00254595
767.5000,0.00253372
767.0000,0.00252742
766.5000,0.00252534
766.0000,0.00252706
765.5000,0.00251501
765.0000,0.0025428
764.5000,0.00256573
764.0000,0.00256965
763.5000,0.00255427
763.0000,0.00257933
762.5000,0.00255932
762.0000,0.00253989
761.5000,0.0025156
761.0000,0.00253865
760.5000,0.00252421
760.0000,0.00254067
759.5000,0.00252944
759.0000,0.00252427
758.5000,0.00251542
758.0000,0.00253372
757.5000,0.00251227
757.0000,0.00251875
756.5000,0.00250372
756.0000,0.00252498
755.5000,0.00250883
755.0000,0.00249077
754.5000,0.00251239
754.0000,0.00254672
753.5000,0.00259085
753.0000,0.00260659
752.5000,0.00261705
752.0000,0.00264502
751.5000,0.00264669
751.0000,0.00264045
750.5000,0.0026654
750.0000,0.00266795
749.5000,0.00268737
749.0000,0.00268987
748.5000,0.00268274
748.0000,0.00271939
747.5000,0.00271701
747.0000,0.00273447
746.5000,0.00273667
746.0000,0.00275805
745.5000,0.00276696
745.0000,0.00277029
744.5000,0.00282684
744.0000,0.00281341
743.5000,0.00281335
743.0000,0.00282975
742.5000,0.00286164
742.0000,0.00286526
741.5000,0.00286954
741.0000,0.00284923
740.5000,0.00288237
740.0000,0.00286639
739.5000,0.00285998
739.0000,0.00286913
738.5000,0.00288997
738.0000,0.00288552
737.5000,0.00288991
737.0000,0.00291587
736.5000,0.00291569
736.0000,0.00292294
735.5000,0.00290845
735.0000,0.00292365
734.5000,0.00290352
734.0000,0.00292419
733.5000,0.00297723
733.0000,0.00298334
732.5000,0.0029783
732.0000,0.00298055
731.5000,0.0029581
731.0000,0.00297194
730.5000,0.00295495
730.0000,0.00296208
729.5000,0.00294949
729.0000,0.00297016
728.5000,0.00295567
728.0000,0.00298132
727.5000,0.00299879
727.0000,0.00299926
726.5000,0.00301055
726.0000,0.00303211
725.5000,0.00303163
725.0000,0.00307137
724.5000,0.00307214
724.0000,0.00310356
723.5000,0.00312756
723.0000,0.00314734
722.5000,0.00315179
722.0000,0.00317573
721.5000,0.0031705
721.0000,0.00319842
720.5000,0.00320471
720.0000,0.00320269
719.5000,0.00320109
719.0000,0.00322455
718.5000,0.00324552
718.0000,0.00324979
717.5000,0.00321624
717.0000,0.00323269
716.5000,0.00326839
716.0000,0.00329654
715.5000,0.00330551
715.0000,0.00331982
714.5000,0.00332986
714.0000,0.00334198
713.5000,0.00335445
713.0000,0.00336389
712.5000,0.00338973
712.0000,0.00340422
711.5000,0.00341497
711.0000,0.00344574
710.5000,0.00345608
710.0000,0.00346962
709.5000,0.00348049
709.0000,0.00347069
708.5000,0.00348637
708.0000,0.00348601
707.5000,0.00349356
707.0000,0.0035106
706.5000,0.00352509
706.0000,0.00354838
705.5000,0.00358128
705.0000,0.00358699
704.5000,0.00360908
704.0000,0.00362933
703.5000,0.00367756
703.0000,0.00366444
702.5000,0.00369473
702.0000,0.00370893
701.5000,0.00373868
701.0000,0.00375721
700.5000,0.00378513
700.0000,0.00379125
699.5000,0.00383942
699.0000,0.00384233
698.5000,0.00387749
698.0000,0.0038965
697.5000,0.00393588
697.0000,0.00395257
696.5000,0.00398334
696.0000,0.00399563
695.5000,0.00401678
695.0000,0.00403465
694.5000,0.00406536
694.0000,0.0040887
693.5000,0.00412838
693.0000,0.00415529
692.5000,0.00417518
692.0000,0.00419995
691.5000,0.00423428
691.0000,0.00423428
690.5000,0.00424147
690.0000,0.0042625
689.5000,0.00427473
689.0000,0.00428554
688.5000,0.00431239
688.0000,0.00433888
687.5000,0.00436573
687.0000,0.00441853
686.5000,0.00440071
686.0000,0.00442025
685.5000,0.00442388
685.0000,0.00447335
684.5000,0.00448012
684.0000,0.00451564
683.5000,0.00451047
683.0000,0.00455781
682.5000,0.00457611
682.0000,0.00460004
681.5000,0.00461014
681.0000,0.00466051
680.5000,0.00467471
680.0000,0.0046965
679.5000,0.00470618
679.0000,0.00473523
678.5000,0.00474669
678.0000,0.00478738
677.5000,0.00481143
677.0000,0.0048602
676.5000,0.00488823
676.0000,0.00493094
675.5000,0.00493825
675.0000,0.00497988
674.5000,0.00501023
674.0000,0.00503678
673.5000,0.00506571
673.0000,0.0051216
672.5000,0.0051431
672.0000,0.00518777
671.5000,0.00520339
671.0000,0.00523125
670.5000,0.00528951
670.0000,0.0053444
669.5000,0.00538443
669.0000,0.00540219
668.5000,0.00543396
668.0000,0.00550073
667.5000,0.00554183
667.0000,0.00557147
666.5000,0.00560859
666.0000,0.00565314
665.5000,0.00567945
665.0000,0.00569994
664.5000,0.00572631
664.0000,0.00577151
663.5000,0.00582111
663.0000,0.00586067
662.5000,0.00591495
662.0000,0.00593806
661.5000,0.00598035
661.0000,0.00600755
660.5000,0.00606695
660.0000,0.00609665
659.5000,0.0061482
659.0000,0.00619619
658.5000,0.00623896
658.0000,0.00628149
657.5000,0.00631938
657.0000,0.00636262
656.5000,0.00642303
656.0000,0.00646668
655.5000,0.0065303
655.0000,0.00655958
654.5000,0.0066223
654.0000,0.00666091
653.5000,0.00672886
653.0000,0.00676895
652.5000,0.00683541
652.0000,0.0068489
651.5000,0.0069178
651.0000,0.0069592
650.5000,0.00702708
650.0000,0.00708321
649.5000,0.00715431
649.0000,0.00721109
648.5000,0.00727768
648.0000,0.00731729
647.5000,0.00738097
647.0000,0.00742539
646.5000,0.00747766
646.0000,0.00753148
645.5000,0.00759153
645.0000,0.00764332
644.5000,0.00769559
644.0000,0.00777019
643.5000,0.00784497
643.0000,0.00790662
642.5000,0.00799197
642.0000,0.00806016
641.5000,0.0081423
641.0000,0.00819956
640.5000,0.00826009
640.0000,0.00832524
639.5000,0.00838607
639.0000,0.00847415
638.5000,0.0085421
638.0000,0.00860571
637.5000,0.00868607
637.0000,0.00876953
636.5000,0.00883825
636.0000,0.00892895
635.5000,0.00899428
635.0000,0.00906728
634.5000,0.0091265
634.0000,0.00920276
633.5000,0.00927344
633.0000,0.00936182
632.5000,0.00945038
632.0000,0.00955035
631.5000,0.00963914
631.0000,0.00973952
630.5000,0.00981989
630.0000,0.00993606
629.5000,0.0100258
629.0000,0.0101295
628.5000,0.010204
628.0000,0.0103085
627.5000,0.0103804
627.0000,0.0104733
626.5000,0.0105652
626.0000,0.0106723
625.5000,0.0107645
625.0000,0.0108698
624.5000,0.0109729
624.0000,0.0110982
623.5000,0.011194
623.0000,0.0113061
622.5000,0.0114017
622.0000,0.0115396
621.5000,0.0116336
621.0000,0.0117478
620.5000,0.0118635
620.0000,0.0119979
619.5000,0.0121144
619.0000,0.0122376
618.5000,0.0123577
618.0000,0.0124759
617.5000,0.0126033
617.0000,0.0127265
616.5000,0.0128521
616.0000,0.0129792
615.5000,0.0131155
615.0000,0.0132388
614.5000,0.0133784
614.0000,0.0134966
613.5000,0.0136208
613.0000,0.0137587
612.5000,0.0139051
612.0000,0.0140286
611.5000,0.0141797
611.0000,0.0143135
610.5000,0.0144731
610.0000,0.0146237
609.5000,0.0147771
609.0000,0.0149304
608.5000,0.0150874
608.0000,0.0152356
607.5000,0.0154127
607.0000,0.0155692
606.5000,0.0157499
606.0000,0.0159126
605.5000,0.0160973
605.0000,0.0162607
604.5000,0.0164462
604.0000,0.0166272
603.5000,0.0168203
603.0000,0.0170108
602.5000,0.0172078
602.0000,0.0174055
601.5000,0.0175965
601.0000,0.0177843
600.5000,0.0180003
600.0000,0.0181948
599.5000,0.0184095
599.0000,0.0186186
598.5000,0.0188422
598.0000,0.0190421
597.5000,0.019256
597.0000,0.0194627
596.5000,0.0197
596.0000,0.0199337
595.5000,0.0201612
595.0000,0.0203989
594.5000,0.0206248
594.0000,0.0208541
593.5000,0.0210983
593.0000,0.0213247
592.5000,0.0215726
592.0000,0.0218272
591.5000,0.0220755
591.0000,0.0223397
590.5000,0.0226115
590.0000,0.0228927
589.5000,0.0231629
589.0000,0.0234646
588.5000,0.0237458
588.0000,0.0240447
587.5000,0.0243388
587.0000,0.0246221
586.5000,0.0249226
586.0000,0.0252142
585.5000,0.0255218
585.0000,0.0258535
584.5000,0.0261593
584.0000,0.0265017
583.5000,0.0268124
583.0000,0.0271667
582.5000,0.0274951
582.0000,0.0278625
581.5000,0.02823
581.0000,0.0286005
580.5000,0.028956
580.0000,0.0293467
579.5000,0.0297133
579.0000,0.0300948
578.5000,0.0304842
578.0000,0.0308855
577.5000,0.0312695
577.0000,0.0316933
576.5000,0.0321096
576.0000,0.0325336
575.5000,0.0329587
575.0000,0.0334025
574.5000,0.0338371
574.0000,0.0342848
573.5000,0.0347466
573.0000,0.0351982
572.5000,0.0356626
572.0000,0.0361417
571.5000,0.0366163
571.0000,0.0371203
570.5000,0.0375929
570.0000,0.0381192
569.5000,0.0386376
569.0000,0.0391441
568.5000,0.0396815
568.0000,0.040201
567.5000,0.0407464
567.0000,0.0412941
566.5000,0.0418548
566.0000,0.0424131
565.5000,0.0429826
565.0000,0.0435752
564.5000,0.0441494
564.0000,0.044731
563.5000,0.0453514
563.0000,0.0459605
562.5000,0.0465829
562.0000,0.0472193
561.5000,0.0478886
561.0000,0.0485336
560.5000,0.0491894
560.0000,0.0498409
559.5000,0.0505183
559.0000,0.0511827
558.5000,0.0518724
558.0000,0.0525597
557.5000,0.0532697
557.0000,0.0539682
556.5000,0.0546962
556.0000,0.0554073
555.5000,0.056161
555.0000,0.0568973
554.5000,0.0576632
554.0000,0.058417
553.5000,0.0591918
553.0000,0.0599523
552.5000,0.0607168
552.0000,0.0614881
551.5000,0.0622797
551.0000,0.063068
550.5000,0.0638689
550.0000,0.0646695
549.5000,0.0654885
549.0000,0.0662917
548.5000,0.0671251
548.0000,0.067935
547.5000,0.0687558
547.0000,0.0695897
546.5000,0.0704496
546.0000,0.0712865
545.5000,0.0721091
545.0000,0.0729352
544.5000,0.07378
544.0000,0.0746325
543.5000,0.0754806
543.0000,0.0763262
542.5000,0.0771727
542.0000,0.078024
541.5000,0.0788697
541.0000,0.0797358
540.5000,0.0805818
540.0000,0.081426
539.5000,0.0822602
539.0000,0.0830916
538.5000,0.0839433
538.0000,0.0847686
537.5000,0.0855773
537.0000,0.0864262
536.5000,0.0872365
536.0000,0.0880655
535.5000,0.0888574
535.0000,0.0896418
534.5000,0.0904176
534.0000,0.0911982
533.5000,0.0919515
533.0000,0.09271
532.5000,0.0934474
532.0000,0.0941995
531.5000,0.0949214
531.0000,0.0956319
530.5000,0.0963014
530.0000,0.0969867
529.5000,0.0976424
529.0000,0.0982979
528.5000,0.098913
528.0000,0.0995316
527.5000,0.100108
527.0000,0.100692
526.5000,0.101217
526.0000,0.101737
525.5000,0.102227
525.0000,0.10271
524.5000,0.103161
524.0000,0.103619
523.5000,0.104025
523.0000,0.104427
522.5000,0.104777
522.0000,0.105124
521.5000,0.10542
521.0000,0.105683
520.5000,0.105928
520.0000,0.106159
519.5000,0.106371
519.0000,0.106564
518.5000,0.106724
518.0000,0.106859
517.5000,0.106952
517.0000,0.107038
516.5000,0.107084
516.0000,0.107101
515.5000,0.10709
515.0000,0.107056
514.5000,0.106995
514.0000,0.106905
513.5000,0.106792
513.0000,0.106675
512.5000,0.106531
512.0000,0.106338
511.5000,0.10614
511.0000,0.105915
510.5000,0.105709
510.0000,0.105611
509.5000,0.105329
509.0000,0.105044
508.5000,0.104734
508.0000,0.104392
507.5000,0.104028
507.0000,0.10367
506.5000,0.10328
506.0000,0.102885
505.5000,0.102475
505.0000,0.102031
504.5000,0.101591
504.0000,0.101157
503.5000,0.100699
503.0000,0.100225
502.5000,0.0997574
502.0000,0.0992825
501.5000,0.098785
501.0000,0.0983068
500.5000,0.0977976
500.0000,0.0973046
499.5000,0.0968075
499.0000,0.096313
498.5000,0.0958008
498.0000,0.0952993
497.5000,0.0947863
497.0000,0.094284
496.5000,0.0937586
496.0000,0.0932379
495.5000,0.092718
495.0000,0.0921997
494.5000,0.0916924
494.0000,0.0911874
493.5000,0.0906825
493.0000,0.0901735
492.5000,0.089691
492.0000,0.0892114
491.5000,0.0887285
491.0000,0.0882446
490.5000,0.0877681
490.0000,0.0872858
489.5000,0.0868459
489.0000,0.0864001
488.5000,0.0859574
488.0000,0.0855253
487.5000,0.0850986
487.0000,0.0846743
486.5000,0.0842508
486.0000,0.0838401
485.5000,0.0834436
485.0000,0.0830244
484.5000,0.0826335
484.0000,0.0822442
483.5000,0.0818625
483.0000,0.0814804
482.5000,0.0811096
482.0000,0.080743
481.5000,0.0803889
481.0000,0.0800453
480.5000,0.0797253
480.0000,0.0794074
479.5000,0.0790783
479.0000,0.0787658
478.5000,0.0784613
478.0000,0.0781654
477.5000,0.0778718
477.0000,0.0775789
476.5000,0.0772945
476.0000,0.0770078
475.5000,0.0767447
475.0000,0.0764862
474.5000,0.0762274
474.0000,0.075995
473.5000,0.0757387
473.0000,0.075504
472.5000,0.0752679
472.0000,0.0750236
471.5000,0.0748059
471.0000,0.0746024
470.5000,0.0743923
470.0000,0.0741756
469.5000,0.0739775
469.0000,0.073801
468.5000,0.0736174
468.0000,0.0734382
467.5000,0.0732597
467.0000,0.0730883
466.5000,0.0729408
466.0000,0.0727718
465.5000,0.0726178
465.0000,0.0724769
464.5000,0.0723152
464.0000,0.0721648
463.5000,0.072043
463.0000,0.0719175
462.5000,0.0717883
462.0000,0.0716656
461.5000,0.0715434
461.0000,0.0714455
460.5000,0.0713201
460.0000,0.071212
459.5000,0.0711128
459.0000,0.0710127
458.5000,0.0709203
458.0000,0.0708252
457.5000,0.0707328
457.0000,0.0706515
456.5000,0.0705798
456.0000,0.0705062
455.5000,0.0704288
455.0000,0.0703523
454.5000,0.0702868
454.0000,0.0702308
453.5000,0.0701622
453.0000,0.0701081
452.5000,0.0700563
452.0000,0.070014
451.5000,0.0699705
451.0000,0.0699311
450.5000,0.0698927
450.0000,0.0696019
449.5000,0.0695451
449.0000,0.0695058
448.5000,0.0694508
448.0000,0.0693843
447.5000,0.0693447
447.0000,0.0693083
446.5000,0.0692878
446.0000,0.0692457
445.5000,0.0692263
445.0000,0.0691831
444.5000,0.0691532
444.0000,0.0691012
443.5000,0.0690747
443.0000,0.0690378
442.5000,0.0689948
442.0000,0.0689692
441.5000,0.0689558
441.0000,0.068928
440.5000,0.0689119
440.0000,0.068897
439.5000,0.0688921
439.0000,0.0688999
438.5000,0.0688978
438.0000,0.0688866
437.5000,0.0688784
437.0000,0.0688759
436.5000,0.0688486
436.0000,0.0688561
435.5000,0.0688456
435.0000,0.0688509
434.5000,0.0688244
434.0000,0.0688512
433.5000,0.0688457
433.0000,0.0688611
432.5000,0.0688689
432.0000,0.0689008
431.5000,0.0689132
431.0000,0.0689454
430.5000,0.0689383
430.0000,0.0689556
429.5000,0.0689488
429.0000,0.0689721
428.5000,0.06897
428.0000,0.0690001
427.5000,0.0689944
427.0000,0.0690244
426.5000,0.069065
426.0000,0.0690933
425.5000,0.0691238
425.0000,0.0691628
424.5000,0.0691882
424.0000,0.0692104
423.5000,0.0692415
423.0000,0.0692682
422.5000,0.06929
422.0000,0.0693288
421.5000,0.0693645
421.0000,0.0693905
420.5000,0.0694376
420.0000,0.0694647
419.5000,0.069536
419.0000,0.0695931
418.5000,0.0696503
418.0000,0.0696803
417.5000,0.0697289
417.0000,0.0697623
416.5000,0.0698096
416.0000,0.0698532
415.5000,0.0699089
415.0000,0.0699334
414.5000,0.0699733
414.0000,0.0700318
413.5000,0.0700769
413.0000,0.0701311
412.5000,0.0702055
412.0000,0.0702816
411.5000,0.0703528
411.0000,0.0703893
410.5000,0.0704579
410.0000,0.0705655
409.5000,0.0706226
409.0000,0.0706898
408.5000,0.0707402
408.0000,0.0708359
407.5000,0.0709146
407.0000,0.0709593
406.5000,0.0710318
406.0000,0.0710884
405.5000,0.0711365
405.0000,0.0712038
404.5000,0.0712913
404.0000,0.0713745
403.5000,0.0714722
403.0000,0.0715471
402.5000,0.0716234
402.0000,0.0716639
401.5000,0.0717649
401.0000,0.071822
400.5000,0.0718926
400.0000,0.0719686
399.5000,0.0720533
399.0000,0.0720994
398.5000,0.0721778
398.0000,0.0722715
397.5000,0.0723476
397.0000,0.0724089
396.5000,0.0724974
396.0000,0.0725875
395.5000,0.0726813
395.0000,0.0727628
394.5000,0.072828
394.0000,0.0729216
393.5000,0.0730244
393.0000,0.073107
392.5000,0.0731954
392.0000,0.0732774
391.5000,0.0733859
391.0000,0.0734932
390.5000,0.0735984
390.0000,0.0736928
389.5000,0.0737945
389.0000,0.0738478
388.5000,0.0739408
388.0000,0.0740156
387.5000,0.0740959
387.0000,0.0741786
386.5000,0.0742589
386.0000,0.0743559
385.5000,0.0744688
385.0000,0.0745607
384.5000,0.0746518
384.0000,0.0747673
383.5000,0.0748557
383.0000,0.0749956
382.5000,0.0751034
382.0000,0.075221
381.5000,0.0753078
381.0000,0.0754424
380.5000,0.0755242
380.0000,0.0756183
379.5000,0.0757358
379.0000,0.0758379
378.5000,0.0759809
378.0000,0.0760805
377.5000,0.0761542
377.0000,0.0762691
376.5000,0.0763667
376.0000,0.0764741
375.5000,0.0765593
375.0000,0.0766643
374.5000,0.0767422
374.0000,0.0768692
373.5000,0.0769811
373.0000,0.0770976
372.5000,0.077199
372.0000,0.0773233
371.5000,0.0774414
371.0000,0.07757
370.5000,0.0776898
370.0000,0.0778421
369.5000,0.077909
369.0000,0.0779992
368.5000,0.0781188
368.0000,0.0782369
367.5000,0.0783798
367.0000,0.0784928
366.5000,0.078565
366.0000,0.0786857
365.5000,0.07882
365.0000,0.0789208
364.5000,0.0790169
364.0000,0.0791071
363.5000,0.0792155
363.0000,0.0792794
362.5000,0.0793792
362.0000,0.0794128
361.5000,0.0795351
361.0000,0.0796218
360.5000,0.0797121
360.0000,0.0797812
359.5000,0.0798779
359.0000,0.0799501
358.5000,0.0800276
358.0000,0.0801267
357.5000,0.0801958
357.0000,0.0802875
356.5000,0.0803935
356.0000,0.0804771
355.5000,0.080562
355.0000,0.0806904
354.5000,0.0807465
354.0000,0.080825
353.5000,0.0808791
353.0000,0.0809747
352.5000,0.0810838
352.0000,0.0811319
351.5000,0.0811831
351.0000,0.0812646
350.5000,0.0813332
350.0000,0.0814018
349.5000,0.0815155
349.0000,0.0815581
348.5000,0.0816597
348.0000,0.0817751
347.5000,0.0818646
347.0000,0.0819428
346.5000,0.0820489
346.0000,0.0821985
345.5000,0.0822884
345.0000,0.0823544
344.5000,0.0824161
344.0000,0.0825009
343.5000,0.0825955
343.0000,0.0826949
342.5000,0.0827974
342.0000,0.0828673
341.5000,0.0829462
341.0000,0.0830526
340.5000,0.0831326
340.0000,0.0829136
339.5000,0.0830345
339.0000,0.0830908
338.5000,0.0832012
338.0000,0.0832762
337.5000,0.0833433
337.0000,0.0834803
336.5000,0.0835142
336.0000,0.0836132
335.5000,0.0837762
335.0000,0.083887
334.5000,0.084056
334.0000,0.0842301
333.5000,0.0843228
333.0000,0.084468
332.5000,0.0846521
332.0000,0.0847568
331.5000,0.0849231
331.0000,0.0850274
330.5000,0.0851619
330.0000,0.0852803
329.5000,0.0854714
329.0000,0.0856614
328.5000,0.0858032
328.0000,0.0859667
327.5000,0.0861105
327.0000,0.0862708
326.5000,0.0864216
326.0000,0.0865489
325.5000,0.0867137
325.0000,0.0869016
324.5000,0.0870363
324.0000,0.087207
323.5000,0.087402
323.0000,0.0876501
322.5000,0.0878111
322.0000,0.0880379
321.5000,0.0882422
321.0000,0.0884084
320.5000,0.0885738
320.0000,0.0887867
319.5000,0.0890149
319.0000,0.0892911
318.5000,0.0894981
318.0000,0.0896797
317.5000,0.0898948
317.0000,0.0901055
316.5000,0.0903153
316.0000,0.0905888
315.5000,0.0908049
315.0000,0.0910255
314.5000,0.0912803
314.0000,0.0915106
313.5000,0.091761
313.0000,0.091949
312.5000,0.0922049
312.0000,0.0924625
311.5000,0.0927208
311.0000,0.092947
310.5000,0.093205
310.0000,0.0934931
309.5000,0.0937247
309.0000,0.0939596
308.5000,0.0942385
308.0000,0.094454
307.5000,0.0946909
307.0000,0.0949083
306.5000,0.0951956
306.0000,0.0954475
305.5000,0.0957697
305.0000,0.0960425
304.5000,0.0963785
304.0000,0.096641
303.5000,0.0969116
303.0000,0.0971792
302.5000,0.0974313
302.0000,0.0977011
301.5000,0.0979979
301.0000,0.0982901
300.5000,0.0985794
300.0000,0.0988479
299.5000,0.0991723
299.0000,0.0994883
298.5000,0.0998105
298.0000,0.100167
297.5000,0.100439
297.0000,0.100783
296.5000,0.101093
296.0000,0.10139
295.5000,0.101729
295.0000,0.102073
294.5000,0.10242
294.0000,0.102762
293.5000,0.103107
293.0000,0.103451
292.5000,0.103809
292.0000,0.104183
291.5000,0.104541
291.0000,0.104907
290.5000,0.105306
290.0000,0.105681
289.5000,0.106015
289.0000,0.106395
288.5000,0.106771
288.0000,0.107187
287.5000,0.107554
287.0000,0.107911
286.5000,0.108333
286.0000,0.108751
285.5000,0.109163
285.0000,0.109589
284.5000,0.110008
284.0000,0.11044
283.5000,0.110816
283.0000,0.111237
282.5000,0.111634
282.0000,0.112038
281.5000,0.112499
281.0000,0.112944
280.5000,0.113392
280.0000,0.113834
279.5000,0.114255
279.0000,0.114733
278.5000,0.115165
278.0000,0.115631
277.5000,0.11609
277.0000,0.116537
276.5000,0.117005
276.0000,0.117437
275.5000,0.11791
275.0000,0.118359
274.5000,0.118822
274.0000,0.119274
273.5000,0.119751
273.0000,0.120229
272.5000,0.120698
272.0000,0.121136
271.5000,0.121591
271.0000,0.122082
270.5000,0.122516
270.0000,0.122963
269.5000,0.123424
269.0000,0.123844
268.5000,0.124278
268.0000,0.124696
267.5000,0.125137
267.0000,0.125589
266.5000,0.126018
266.0000,0.126448
265.5000,0.126829
265.0000,0.127218
264.5000,0.12761
264.0000,0.128024
263.5000,0.128424
263.0000,0.128778
262.5000,0.129145
262.0000,0.129486
261.5000,0.129836
261.0000,0.130175
260.5000,0.130505
260.0000,0.130867
259.5000,0.131185
259.0000,0.131515
258.5000,0.131817
258.0000,0.132115
257.5000,0.132419
257.0000,0.132693
256.5000,0.132935
256.0000,0.13321
255.5000,0.133479
255.0000,0.133736
254.5000,0.133994
254.0000,0.134227
253.5000,0.134414
253.0000,0.134656
252.5000,0.134868
252.0000,0.135097
251.5000,0.13531
251.0000,0.13552
250.5000,0.13571
250.0000,0.135887
249.5000,0.136085
249.0000,0.136273
248.5000,0.136464
248.0000,0.136634
247.5000,0.136818
247.0000,0.136984
246.5000,0.137136
246.0000,0.137277
245.5000,0.137439
245.0000,0.137588
244.5000,0.13774
244.0000,0.137911
243.5000,0.138078
243.0000,0.138236
242.5000,0.138375
242.0000,0.138519
241.5000,0.138636
241.0000,0.138746
240.5000,0.13889
240.0000,0.139028
239.5000,0.139147
239.0000,0.139253
238.5000,0.139394
238.0000,0.139543
237.5000,0.139664
237.0000,0.139775
236.5000,0.139905
236.0000,0.14001
235.5000,0.140152
235.0000,0.140262
234.5000,0.14038
234.0000,0.140475
233.5000,0.140616
233.0000,0.140724
232.5000,0.140806
232.0000,0.140924
231.5000,0.141043
231.0000,0.141155
230.5000,0.141278
230.0000,0.141397
229.5000,0.141518
229.0000,0.141653
228.5000,0.141762
228.0000,0.141862
227.5000,0.141945
227.0000,0.142044
226.5000,0.142135
226.0000,0.142241
225.5000,0.142327
225.0000,0.142444
224.5000,0.142544
224.0000,0.142626
223.5000,0.142746
223.0000,0.142811
222.5000,0.14288
222.0000,0.142954
221.5000,0.143035
221.0000,0.143104
220.5000,0.143124
220.0000,0.143185
219.5000,0.143232
219.0000,0.143234
218.5000,0.143256
218.0000,0.143278
217.5000,0.143254
217.0000,0.14324
216.5000,0.143278
216.0000,0.143209
215.5000,0.143144
215.0000,0.1431
214.5000,0.143024
214.0000,0.142958
213.5000,0.142845
213.0000,0.142713
212.5000,0.142578
212.0000,0.142443
211.5000,0.142321
211.0000,0.142165
210.5000,0.14198
210.0000,0.141793
209.5000,0.141619
209.0000,0.141432
208.5000,0.14123
208.0000,0.141004
207.5000,0.140717
207.0000,0.140463
206.5000,0.14021
206.0000,0.140033
205.5000,0.13983
205.0000,0.139585
204.5000,0.139393
204.0000,0.139195
203.5000,0.138979
203.0000,0.138895
202.5000,0.138653
202.0000,0.138359
201.5000,0.138348
201.0000,0.138446
200.5000,0.138414
200.0000,0.13826

##### Extended Information
[Comments]
Sample name,453 Au Runpeng POST centrifuga 1000RCF surn_10-01-25
Comment,453 Au Runpeng POST centrifuga 1000RCF surn_10-01-25
User
Division
Company,Uni PD

[Detailed Information]
Creation date,10/01/2025 11:45

Data array type,Linear data array
Horizontal axis,Wavelength [nm]
Vertical axis,Abs
Start,1200 nm
End,200 nm
Data interval,0.5 nm
Data points,2001    

[Measurement Information]
Instrument name,Jasco V-770
Model name,V-770
Serial No.,A035961801

Accessory,USE-753
Accessory S/N,A035961801
  Cell,
  Ref. beam,

Measurement date,10/01/2025 11:45

Parameter file,D:\DATI UTENTI\REFFATTO C\Reffatto 200-1200nm.uvsp
Photometric mode,Abs
Measurement range,1200 - 200 nm
Data interval,0.5 nm
UV/Vis bandwidth,1.0 nm
NIR bandwidth,8.0 nm
UV/Vis response,0.96 sec
NIR response,0.96 sec
Scan speed,1000 nm/min
Change source at,340 nm
Change grating at,850 nm
Light source,D2/WI
Filter exchange,Step
Correction,Baseline

